Ni Rho=8.902, Sig=0.nm, P=1., E=22000.eV
 Angle (deg), Reflectivity
   0.000000  1.00000
   2.000000E-02  0.993267
   4.000000E-02  0.986231
   6.000000E-02  0.978453
   8.000000E-02  0.969241
   0.100000  0.957225
   0.120000  0.938825
   0.140000  0.898290
   0.160000  0.377684
   0.180000  0.109241
   0.200000  5.206164E-02
   0.220000  2.945374E-02
   0.240000  1.834632E-02
   0.260000  1.218242E-02
   0.280000  8.474544E-03
   0.300000  6.109945E-03
   0.320000  4.532936E-03
   0.340000  3.442983E-03
   0.360000  2.667299E-03
   0.380000  2.101553E-03
   0.400000  1.680199E-03
   0.420000  1.360650E-03
   0.440000  1.114441E-03
   0.460000  9.220607E-04
   0.480000  7.698514E-04
   0.500000  6.480692E-04
   0.520000  5.496417E-04
   0.540000  4.693500E-04
   0.560000  4.033017E-04
   0.580000  3.485506E-04
   0.600000  3.028394E-04
   0.620000  2.644260E-04
   0.640000  2.319476E-04
   0.660000  2.043321E-04
   0.680000  1.807261E-04
   0.700000  1.604487E-04
   0.720000  1.429489E-04
   0.740000  1.277813E-04
   0.760000  1.145804E-04
   0.780000  1.030485E-04
   0.800000  9.293635E-05
   0.820000  8.403812E-05
   0.840000  7.618365E-05
   0.860000  6.922861E-05
   0.880000  6.305222E-05
   0.900000  5.755122E-05
   0.920000  5.263834E-05
   0.940000  4.824044E-05
   0.960000  4.429388E-05
   0.980000  4.074332E-05
   1.00000  3.754256E-05
   1.02000  3.465081E-05
   1.04000  3.203205E-05
   1.06000  2.965738E-05
   1.08000  2.749921E-05
   1.10000  2.553378E-05
   1.12000  2.374143E-05
   1.14000  2.210401E-05
   1.16000  2.060525E-05
   1.18000  1.923179E-05
   1.20000  1.797122E-05
   1.22000  1.681216E-05
   1.24000  1.574532E-05
   1.26000  1.476209E-05
   1.28000  1.385429E-05
   1.30000  1.301523E-05
   1.32000  1.223930E-05
   1.34000  1.151989E-05
   1.36000  1.085286E-05
   1.38000  1.023352E-05
   1.40000  9.657809E-06
   1.42000  9.121930E-06
   1.44000  8.622813E-06
   1.46000  8.157382E-06
   1.48000  7.723203E-06
   1.50000  7.317445E-06
   1.52000  6.937954E-06
   1.54000  6.582699E-06
   1.56000  6.249931E-06
   1.58000  5.938019E-06
   1.60000  5.645338E-06
   1.62000  5.370451E-06
   1.64000  5.112247E-06
   1.66000  4.869219E-06
   1.68000  4.640638E-06
   1.70000  4.425148E-06
   1.72000  4.222166E-06
   1.74000  4.030700E-06
   1.76000  3.849974E-06
   1.78000  3.679145E-06
   1.80000  3.517726E-06
   1.82000  3.365147E-06
   1.84000  3.220777E-06
   1.86000  3.083987E-06
   1.88000  2.954579E-06
   1.90000  2.831805E-06
   1.92000  2.715243E-06
   1.94000  2.604604E-06
   1.96000  2.499698E-06
   1.98000  2.399912E-06
   2.00000  2.305192E-06
   2.02000  2.214900E-06
   2.04000  2.129101E-06
   2.06000  2.047510E-06
   2.08000  1.969609E-06
   2.10000  1.895452E-06
   2.12000  1.824899E-06
   2.14000  1.757401E-06
   2.16000  1.693123E-06
   2.18000  1.631654E-06
   2.20000  1.573094E-06
   2.22000  1.516943E-06
   2.24000  1.463421E-06
   2.26000  1.412201E-06
   2.28000  1.363184E-06
   2.30000  1.316337E-06
   2.32000  1.271503E-06
   2.34000  1.228514E-06
   2.36000  1.187275E-06
   2.38000  1.147851E-06
   2.40000  1.109996E-06
   2.42000  1.073723E-06
   2.44000  1.038884E-06
   2.46000  1.005451E-06
   2.48000  9.733207E-07
   2.50000  9.425116E-07
   2.52000  9.129286E-07
   2.54000  8.844883E-07
   2.56000  8.571305E-07
   2.58000  8.308079E-07
   2.60000  8.054930E-07
   2.62000  7.812369E-07
   2.64000  7.578197E-07
   2.66000  7.352040E-07
   2.68000  7.135116E-07
   2.70000  6.925653E-07
   2.72000  6.723963E-07
   2.74000  6.529676E-07
   2.76000  6.342255E-07
   2.78000  6.161574E-07
   2.80000  5.986940E-07
   2.82000  5.819033E-07
   2.84000  5.657178E-07
   2.86000  5.499995E-07
   2.88000  5.348720E-07
   2.90000  5.202747E-07
   2.92000  5.061447E-07
   2.94000  4.925005E-07
   2.96000  4.793410E-07
   2.98000  4.665873E-07
   3.00000  4.542696E-07
   3.02000  4.423404E-07
   3.04000  4.308293E-07
   3.06000  4.196278E-07
   3.08000  4.088380E-07
   3.10000  3.984164E-07
   3.12000  3.882617E-07
   3.14000  3.784716E-07
   3.16000  3.689888E-07
   3.18000  3.597775E-07
   3.20000  3.508888E-07
   3.22000  3.422266E-07
   3.24000  3.338672E-07
   3.26000  3.257558E-07
   3.28000  3.178821E-07
   3.30000  3.102365E-07
   3.32000  3.028291E-07
   3.34000  2.956472E-07
   3.36000  2.886683E-07
   3.38000  2.819153E-07
   3.40000  2.753131E-07
   3.42000  2.689381E-07
   3.44000  2.627488E-07
   3.46000  2.567052E-07
   3.48000  2.508658E-07
   3.50000  2.451904E-07
   3.52000  2.396727E-07
   3.54000  2.343063E-07
   3.56000  2.290567E-07
   3.58000  2.239902E-07
   3.60000  2.190713E-07
   3.62000  2.142805E-07
   3.64000  2.095724E-07
   3.66000  2.050498E-07
   3.68000  2.006276E-07
   3.70000  1.963519E-07
   3.72000  1.921678E-07
   3.74000  1.880704E-07
   3.76000  1.841070E-07
   3.78000  1.802449E-07
   3.80000  1.764600E-07
   3.82000  1.728181E-07
   3.84000  1.692433E-07
   3.86000  1.657780E-07
   3.88000  1.623766E-07
   3.90000  1.590974E-07
   3.92000  1.558331E-07
   3.94000  1.527071E-07
   3.96000  1.496719E-07
   3.98000  1.466642E-07
   4.00000  1.437825E-07
   4.02000  1.409417E-07
   4.04000  1.381798E-07
   4.06000  1.354377E-07
   4.08000  1.328249E-07
   4.10000  1.302654E-07
   4.12000  1.277527E-07
   4.14000  1.253053E-07
   4.16000  1.229054E-07
   4.18000  1.205817E-07
   4.20000  1.182961E-07
   4.22000  1.160866E-07
   4.24000  1.139113E-07
   4.26000  1.117881E-07
   4.28000  1.096960E-07
   4.30000  1.076852E-07
   4.32000  1.057016E-07
   4.34000  1.037627E-07
   4.36000  1.018725E-07
   4.38000  1.000435E-07
   4.40000  9.823568E-08
   4.42000  9.646592E-08
   4.44000  9.474485E-08
   4.46000  9.307053E-08
   4.48000  9.141230E-08
   4.50000  8.980929E-08
   4.52000  8.823691E-08
   4.54000  8.667736E-08
   4.56000  8.516823E-08
   4.58000  8.369688E-08
   4.60000  8.224558E-08
   4.62000  8.084561E-08
   4.64000  7.947334E-08
   4.66000  7.809784E-08
   4.68000  7.677379E-08
   4.70000  7.547991E-08
   4.72000  7.421508E-08
   4.74000  7.297230E-08
   4.76000  7.175644E-08
   4.78000  7.057542E-08
   4.80000  6.940439E-08
   4.82000  6.824289E-08
   4.84000  6.713622E-08
   4.86000  6.604543E-08
   4.88000  6.497336E-08
   4.90000  6.391808E-08
   4.92000  6.289030E-08
   4.94000  6.186742E-08
   4.96000  6.087814E-08
   4.98000  5.991352E-08
   5.00000  5.895929E-08
   5.02000  5.803545E-08
   5.04000  5.711328E-08
   5.06000  5.621978E-08
   5.08000  5.534680E-08
   5.10000  5.448090E-08
   5.12000  5.362845E-08
   5.14000  5.280788E-08
   5.16000  5.199161E-08
   5.18000  5.119973E-08
   5.20000  5.042402E-08
   5.22000  4.964566E-08
   5.24000  4.890741E-08
   5.26000  4.816543E-08
   5.28000  4.743743E-08
   5.30000  4.672907E-08
   5.32000  4.603339E-08
   5.34000  4.534431E-08
   5.36000  4.467831E-08
   5.38000  4.401224E-08
   5.40000  4.337352E-08
   5.42000  4.273926E-08
   5.44000  4.210918E-08
   5.46000  4.149894E-08
   5.48000  4.090775E-08
   5.50000  4.030366E-08
   5.52000  3.973324E-08
   5.54000  3.916475E-08
   5.56000  3.860776E-08
   5.58000  3.805205E-08
   5.60000  3.751224E-08
   5.62000  3.698772E-08
   5.64000  3.645816E-08
   5.66000  3.595737E-08
   5.68000  3.545081E-08
   5.70000  3.495766E-08
   5.72000  3.446353E-08
   5.74000  3.399066E-08
   5.76000  3.352463E-08
   5.78000  3.307014E-08
   5.80000  3.260835E-08
   5.82000  3.216568E-08
   5.84000  3.173334E-08
   5.86000  3.130594E-08
   5.88000  3.088317E-08
   5.90000  3.046199E-08
   5.92000  3.005260E-08
   5.94000  2.965443E-08
   5.96000  2.926440E-08
   5.98000  2.886521E-08
   6.00000  2.848822E-08
   6.02000  2.811837E-08
   6.04000  2.774583E-08
   6.06000  2.737998E-08
   6.08000  2.702266E-08
   6.10000  2.666670E-08
   6.12000  2.632992E-08
   6.14000  2.598722E-08
   6.16000  2.565168E-08
   6.18000  2.531652E-08
   6.20000  2.499884E-08
   6.22000  2.468093E-08
   6.24000  2.436885E-08
   6.26000  2.405619E-08
   6.28000  2.375337E-08
   6.30000  2.345553E-08
   6.32000  2.316239E-08
   6.34000  2.287366E-08
   6.36000  2.258337E-08
   6.38000  2.230711E-08
   6.40000  2.202452E-08
   6.42000  2.175413E-08
   6.44000  2.148265E-08
   6.46000  2.122921E-08
   6.48000  2.096343E-08
   6.50000  2.071498E-08
   6.52000  2.045412E-08
   6.54000  2.020990E-08
   6.56000  1.996242E-08
   6.58000  1.972167E-08
   6.60000  1.948237E-08
   6.62000  1.925334E-08
   6.64000  1.902124E-08
   6.66000  1.879887E-08
   6.68000  1.856839E-08
   6.70000  1.835188E-08
   6.72000  1.813565E-08
   6.74000  1.792414E-08
   6.76000  1.771261E-08
   6.78000  1.750539E-08
   6.80000  1.729787E-08
   6.82000  1.710248E-08
   6.84000  1.690254E-08
   6.86000  1.670608E-08
   6.88000  1.651673E-08
   6.90000  1.632250E-08
   6.92000  1.613880E-08
   6.94000  1.595030E-08
   6.96000  1.577214E-08
   6.98000  1.558863E-08
   7.00000  1.541887E-08
   7.02000  1.523963E-08
   7.04000  1.506982E-08
   7.06000  1.490545E-08
   7.08000  1.473520E-08
   7.10000  1.457368E-08
   7.12000  1.440614E-08
   7.14000  1.425055E-08
   7.16000  1.408874E-08
   7.18000  1.393837E-08
   7.20000  1.378509E-08
   7.22000  1.362889E-08
   7.24000  1.348000E-08
   7.26000  1.333137E-08
   7.28000  1.318291E-08
   7.30000  1.304114E-08
   7.32000  1.289923E-08
   7.34000  1.275712E-08
   7.36000  1.262112E-08
   7.38000  1.249096E-08
   7.40000  1.236013E-08
   7.42000  1.222857E-08
   7.44000  1.209625E-08
   7.46000  1.196915E-08
   7.48000  1.183459E-08
   7.50000  1.171734E-08
   7.52000  1.158651E-08
   7.54000  1.147248E-08
   7.56000  1.135061E-08
   7.58000  1.122728E-08
   7.60000  1.110810E-08
   7.62000  1.099284E-08
   7.64000  1.088134E-08
   7.66000  1.076796E-08
   7.68000  1.065808E-08
   7.70000  1.055153E-08
   7.72000  1.043680E-08
   7.74000  1.033649E-08
   7.76000  1.022785E-08
   7.78000  1.012803E-08
   7.80000  1.002492E-08
   7.82000  9.924367E-09
   7.84000  9.821275E-09
   7.86000  9.725479E-09
   7.88000  9.626974E-09
   7.90000  9.524825E-09
   7.92000  9.435238E-09
   7.94000  9.342718E-09
   7.96000  9.246287E-09
   7.98000  9.156192E-09
   8.00000  9.063032E-09
   8.02000  8.970322E-09
   8.04000  8.890082E-09
   8.06000  8.804395E-09
   8.08000  8.706597E-09
   8.10000  8.623131E-09
   8.12000  8.541695E-09
   8.14000  8.454585E-09
   8.16000  8.379030E-09
   8.18000  8.297591E-09
   8.20000  8.217897E-09
   8.22000  8.138730E-09
   8.24000  8.057643E-09
   8.26000  7.983339E-09
   8.28000  7.906866E-09
   8.30000  7.827810E-09
   8.32000  7.755547E-09
   8.34000  7.684492E-09
   8.36000  7.607026E-09
   8.38000  7.539615E-09
   8.40000  7.465659E-09
   8.42000  7.396475E-09
   8.44000  7.329367E-09
   8.46000  7.254464E-09
   8.48000  7.193724E-09
   8.50000  7.125117E-09
   8.52000  7.058190E-09
   8.54000  6.995439E-09
   8.56000  6.925766E-09
   8.58000  6.864954E-09
   8.60000  6.804011E-09
   8.62000  6.740030E-09
   8.64000  6.675774E-09
   8.66000  6.616551E-09
   8.68000  6.556808E-09
   8.70000  6.497252E-09
   8.72000  6.439756E-09
   8.74000  6.378226E-09
   8.76000  6.316798E-09
   8.78000  6.259010E-09
   8.80000  6.204338E-09
   8.82000  6.153002E-09
   8.84000  6.096991E-09
   8.86000  6.041077E-09
   8.88000  5.991028E-09
   8.90000  5.933433E-09
   8.92000  5.878576E-09
   8.94000  5.826477E-09
   8.96000  5.779839E-09
   8.98000  5.725539E-09
   9.00000  5.680872E-09
   9.02000  5.624213E-09
   9.04000  5.579830E-09
   9.06000  5.527699E-09
   9.08000  5.480549E-09
   9.10000  5.435350E-09
   9.12000  5.385263E-09
   9.14000  5.337009E-09
   9.16000  5.293380E-09
   9.18000  5.251338E-09
   9.20000  5.204342E-09
   9.22000  5.160298E-09
   9.24000  5.110993E-09
   9.26000  5.072561E-09
   9.28000  5.028734E-09
   9.30000  4.982474E-09
   9.32000  4.943791E-09
   9.34000  4.902560E-09
   9.36000  4.858310E-09
   9.38000  4.819345E-09
   9.40000  4.779666E-09
   9.42000  4.734956E-09
   9.44000  4.699544E-09
   9.46000  4.661399E-09
   9.48000  4.617595E-09
   9.50000  4.583341E-09
   9.52000  4.545636E-09
   9.54000  4.505143E-09
   9.56000  4.467189E-09
   9.58000  4.430128E-09
   9.60000  4.397640E-09
   9.62000  4.360017E-09
   9.64000  4.324606E-09
   9.66000  4.286271E-09
   9.68000  4.252162E-09
   9.70000  4.218682E-09
   9.72000  4.183490E-09
   9.74000  4.148874E-09
   9.76000  4.117501E-09
   9.78000  4.084243E-09
   9.80000  4.051438E-09
   9.82000  4.018704E-09
   9.84000  3.986348E-09
   9.86000  3.955408E-09
   9.88000  3.923299E-09
   9.90000  3.889040E-09
   9.92000  3.860430E-09
   9.94000  3.829549E-09
   9.96000  3.797382E-09
   9.98000  3.766269E-09
   10.0000  3.737174E-09
