Ni Rho=8.902, Sig=0.nm, P=1., E=18000.eV
 Angle (deg), Reflectivity
   0.000000  1.00000
   2.000000E-02  0.992094
   4.000000E-02  0.983981
   6.000000E-02  0.975355
   8.000000E-02  0.965800
   0.100000  0.954673
   0.120000  0.940811
   0.140000  0.921694
   0.160000  0.890053
   0.180000  0.805812
   0.200000  0.274390
   0.220000  0.109579
   0.240000  5.880114E-02
   0.260000  3.585828E-02
   0.280000  2.360206E-02
   0.300000  1.636964E-02
   0.320000  1.180254E-02
   0.340000  8.770928E-03
   0.360000  6.679205E-03
   0.380000  5.190382E-03
   0.400000  4.103122E-03
   0.420000  3.291739E-03
   0.440000  2.674903E-03
   0.460000  2.198340E-03
   0.480000  1.824900E-03
   0.500000  1.528573E-03
   0.520000  1.290783E-03
   0.540000  1.098021E-03
   0.560000  9.403238E-04
   0.580000  8.102345E-04
   0.600000  7.020942E-04
   0.620000  6.115683E-04
   0.640000  5.352944E-04
   0.660000  4.706427E-04
   0.680000  4.155344E-04
   0.700000  3.683178E-04
   0.720000  3.276643E-04
   0.740000  2.925035E-04
   0.760000  2.619621E-04
   0.780000  2.353290E-04
   0.800000  2.120137E-04
   0.820000  1.915292E-04
   0.840000  1.734727E-04
   0.860000  1.575047E-04
   0.880000  1.433412E-04
   0.900000  1.307410E-04
   0.920000  1.195002E-04
   0.940000  1.094472E-04
   0.960000  1.004339E-04
   0.980000  9.233237E-05
   1.00000  8.503466E-05
   1.02000  7.844647E-05
   1.04000  7.248507E-05
   1.06000  6.708228E-05
   1.08000  6.217515E-05
   1.10000  5.770931E-05
   1.12000  5.363881E-05
   1.14000  4.992208E-05
   1.16000  4.652209E-05
   1.18000  4.340769E-05
   1.20000  4.055047E-05
   1.22000  3.792466E-05
   1.24000  3.550867E-05
   1.26000  3.328276E-05
   1.28000  3.122856E-05
   1.30000  2.933066E-05
   1.32000  2.757577E-05
   1.34000  2.594965E-05
   1.36000  2.444220E-05
   1.38000  2.304292E-05
   1.40000  2.174258E-05
   1.42000  2.053263E-05
   1.44000  1.940593E-05
   1.46000  1.835555E-05
   1.48000  1.737575E-05
   1.50000  1.646040E-05
   1.52000  1.560454E-05
   1.54000  1.480356E-05
   1.56000  1.405342E-05
   1.58000  1.335038E-05
   1.60000  1.269081E-05
   1.62000  1.207148E-05
   1.64000  1.148973E-05
   1.66000  1.094240E-05
   1.68000  1.042756E-05
   1.70000  9.942422E-06
   1.72000  9.485409E-06
   1.74000  9.054386E-06
   1.76000  8.647601E-06
   1.78000  8.263243E-06
   1.80000  7.900077E-06
   1.82000  7.556782E-06
   1.84000  7.231984E-06
   1.86000  6.924342E-06
   1.88000  6.633190E-06
   1.90000  6.357066E-06
   1.92000  6.095021E-06
   1.94000  5.846329E-06
   1.96000  5.610430E-06
   1.98000  5.386156E-06
   2.00000  5.173186E-06
   2.02000  4.970348E-06
   2.04000  4.777531E-06
   2.06000  4.594119E-06
   2.08000  4.419159E-06
   2.10000  4.252563E-06
   2.12000  4.093969E-06
   2.14000  3.942408E-06
   2.16000  3.797991E-06
   2.18000  3.659975E-06
   2.20000  3.528391E-06
   2.22000  3.402380E-06
   2.24000  3.282165E-06
   2.26000  3.167160E-06
   2.28000  3.057122E-06
   2.30000  2.951916E-06
   2.32000  2.851226E-06
   2.34000  2.754723E-06
   2.36000  2.662193E-06
   2.38000  2.573667E-06
   2.40000  2.488711E-06
   2.42000  2.407283E-06
   2.44000  2.329108E-06
   2.46000  2.254087E-06
   2.48000  2.182018E-06
   2.50000  2.112879E-06
   2.52000  2.046483E-06
   2.54000  1.982663E-06
   2.56000  1.921287E-06
   2.58000  1.862248E-06
   2.60000  1.805467E-06
   2.62000  1.750988E-06
   2.64000  1.698448E-06
   2.66000  1.647761E-06
   2.68000  1.599080E-06
   2.70000  1.552112E-06
   2.72000  1.506878E-06
   2.74000  1.463299E-06
   2.76000  1.421268E-06
   2.78000  1.380746E-06
   2.80000  1.341608E-06
   2.82000  1.303934E-06
   2.84000  1.267605E-06
   2.86000  1.232396E-06
   2.88000  1.198474E-06
   2.90000  1.165732E-06
   2.92000  1.134060E-06
   2.94000  1.103471E-06
   2.96000  1.073949E-06
   2.98000  1.045361E-06
   3.00000  1.017741E-06
   3.02000  9.910050E-07
   3.04000  9.651848E-07
   3.06000  9.401068E-07
   3.08000  9.159133E-07
   3.10000  8.925286E-07
   3.12000  8.697916E-07
   3.14000  8.478387E-07
   3.16000  8.265754E-07
   3.18000  8.059394E-07
   3.20000  7.859989E-07
   3.22000  7.666021E-07
   3.24000  7.478560E-07
   3.26000  7.296709E-07
   3.28000  7.120249E-07
   3.30000  6.948969E-07
   3.32000  6.782955E-07
   3.34000  6.621956E-07
   3.36000  6.465579E-07
   3.38000  6.314110E-07
   3.40000  6.166371E-07
   3.42000  6.023453E-07
   3.44000  5.884688E-07
   3.46000  5.749428E-07
   3.48000  5.618504E-07
   3.50000  5.491272E-07
   3.52000  5.367592E-07
   3.54000  5.247333E-07
   3.56000  5.129936E-07
   3.58000  5.016357E-07
   3.60000  4.906030E-07
   3.62000  4.798628E-07
   3.64000  4.693438E-07
   3.66000  4.591969E-07
   3.68000  4.492913E-07
   3.70000  4.396933E-07
   3.72000  4.303180E-07
   3.74000  4.211551E-07
   3.76000  4.122728E-07
   3.78000  4.036199E-07
   3.80000  3.951576E-07
   3.82000  3.869821E-07
   3.84000  3.789775E-07
   3.86000  3.712052E-07
   3.88000  3.635948E-07
   3.90000  3.562316E-07
   3.92000  3.489528E-07
   3.94000  3.419414E-07
   3.96000  3.351245E-07
   3.98000  3.284056E-07
   4.00000  3.219303E-07
   4.02000  3.155699E-07
   4.04000  3.093793E-07
   4.06000  3.032687E-07
   4.08000  2.974006E-07
   4.10000  2.916597E-07
   4.12000  2.860349E-07
   4.14000  2.805527E-07
   4.16000  2.751849E-07
   4.18000  2.699735E-07
   4.20000  2.648601E-07
   4.22000  2.599006E-07
   4.24000  2.550309E-07
   4.26000  2.502770E-07
   4.28000  2.456061E-07
   4.30000  2.410925E-07
   4.32000  2.366543E-07
   4.34000  2.323167E-07
   4.36000  2.280845E-07
   4.38000  2.239760E-07
   4.40000  2.199301E-07
   4.42000  2.159713E-07
   4.44000  2.121147E-07
   4.46000  2.083566E-07
   4.48000  2.046504E-07
   4.50000  2.010540E-07
   4.52000  1.975297E-07
   4.54000  1.940502E-07
   4.56000  1.906712E-07
   4.58000  1.873730E-07
   4.60000  1.841286E-07
   4.62000  1.809840E-07
   4.64000  1.779034E-07
   4.66000  1.748399E-07
   4.68000  1.718747E-07
   4.70000  1.689755E-07
   4.72000  1.661400E-07
   4.74000  1.633574E-07
   4.76000  1.606342E-07
   4.78000  1.579821E-07
   4.80000  1.553632E-07
   4.82000  1.527764E-07
   4.84000  1.502891E-07
   4.86000  1.478426E-07
   4.88000  1.454407E-07
   4.90000  1.430801E-07
   4.92000  1.407765E-07
   4.94000  1.384956E-07
   4.96000  1.362800E-07
   4.98000  1.341160E-07
   5.00000  1.319819E-07
   5.02000  1.299073E-07
   5.04000  1.278488E-07
   5.06000  1.258465E-07
   5.08000  1.238880E-07
   5.10000  1.219528E-07
   5.12000  1.200501E-07
   5.14000  1.182073E-07
   5.16000  1.163828E-07
   5.18000  1.146063E-07
   5.20000  1.128654E-07
   5.22000  1.111315E-07
   5.24000  1.094684E-07
   5.26000  1.078104E-07
   5.28000  1.061835E-07
   5.30000  1.045962E-07
   5.32000  1.030376E-07
   5.34000  1.014986E-07
   5.36000  1.000036E-07
   5.38000  9.851763E-08
   5.40000  9.708162E-08
   5.42000  9.566111E-08
   5.44000  9.425547E-08
   5.46000  9.288794E-08
   5.48000  9.155716E-08
   5.50000  9.021515E-08
   5.52000  8.893142E-08
   5.54000  8.765829E-08
   5.56000  8.640993E-08
   5.58000  8.517088E-08
   5.60000  8.396287E-08
   5.62000  8.278481E-08
   5.64000  8.160615E-08
   5.66000  8.047732E-08
   5.68000  7.934651E-08
   5.70000  7.824226E-08
   5.72000  7.714292E-08
   5.74000  7.608163E-08
   5.76000  7.503667E-08
   5.78000  7.401496E-08
   5.80000  7.298821E-08
   5.82000  7.199578E-08
   5.84000  7.102444E-08
   5.86000  7.006600E-08
   5.88000  6.911988E-08
   5.90000  6.818142E-08
   5.92000  6.726579E-08
   5.94000  6.637201E-08
   5.96000  6.549539E-08
   5.98000  6.460993E-08
   6.00000  6.376247E-08
   6.02000  6.293038E-08
   6.04000  6.209884E-08
   6.06000  6.128182E-08
   6.08000  6.048199E-08
   6.10000  5.968850E-08
   6.12000  5.892794E-08
   6.14000  5.816268E-08
   6.16000  5.741222E-08
   6.18000  5.666633E-08
   6.20000  5.595050E-08
   6.22000  5.523819E-08
   6.24000  5.453836E-08
   6.26000  5.384138E-08
   6.28000  5.316274E-08
   6.30000  5.249512E-08
   6.32000  5.183801E-08
   6.34000  5.119093E-08
   6.36000  5.054488E-08
   6.38000  4.992313E-08
   6.40000  4.929515E-08
   6.42000  4.868859E-08
   6.44000  4.808352E-08
   6.46000  4.750850E-08
   6.48000  4.691804E-08
   6.50000  4.635645E-08
   6.52000  4.577918E-08
   6.54000  4.522967E-08
   6.56000  4.467807E-08
   6.58000  4.413926E-08
   6.60000  4.360532E-08
   6.62000  4.308940E-08
   6.64000  4.257147E-08
   6.66000  4.207064E-08
   6.68000  4.156021E-08
   6.70000  4.107310E-08
   6.72000  4.058885E-08
   6.74000  4.011402E-08
   6.76000  3.964150E-08
   6.78000  3.917771E-08
   6.80000  3.871572E-08
   6.82000  3.827410E-08
   6.84000  3.782782E-08
   6.86000  3.738890E-08
   6.88000  3.696271E-08
   6.90000  3.653127E-08
   6.92000  3.611762E-08
   6.94000  3.569877E-08
   6.96000  3.529734E-08
   6.98000  3.488983E-08
   7.00000  3.450479E-08
   7.02000  3.410743E-08
   7.04000  3.372597E-08
   7.06000  3.335446E-08
   7.08000  3.297594E-08
   7.10000  3.261218E-08
   7.12000  3.224115E-08
   7.14000  3.188966E-08
   7.16000  3.153052E-08
   7.18000  3.119011E-08
   7.20000  3.084694E-08
   7.22000  3.050097E-08
   7.24000  3.016748E-08
   7.26000  2.983590E-08
   7.28000  2.950607E-08
   7.30000  2.918770E-08
   7.32000  2.887058E-08
   7.34000  2.855458E-08
   7.36000  2.824910E-08
   7.38000  2.795374E-08
   7.40000  2.765873E-08
   7.42000  2.736397E-08
   7.44000  2.706937E-08
   7.46000  2.678388E-08
   7.48000  2.648849E-08
   7.50000  2.622023E-08
   7.52000  2.593290E-08
   7.54000  2.567189E-08
   7.56000  2.540037E-08
   7.58000  2.512783E-08
   7.60000  2.486263E-08
   7.62000  2.460445E-08
   7.64000  2.435300E-08
   7.66000  2.409984E-08
   7.68000  2.385300E-08
   7.70000  2.361219E-08
   7.72000  2.336021E-08
   7.74000  2.313082E-08
   7.76000  2.289000E-08
   7.78000  2.266336E-08
   7.80000  2.243279E-08
   7.82000  2.220702E-08
   7.84000  2.197841E-08
   7.86000  2.176165E-08
   7.88000  2.154176E-08
   7.90000  2.131734E-08
   7.92000  2.111261E-08
   7.94000  2.090437E-08
   7.96000  2.069116E-08
   7.98000  2.048829E-08
   8.00000  2.028167E-08
   8.02000  2.007657E-08
   8.04000  1.989093E-08
   8.06000  1.969796E-08
   8.08000  1.948768E-08
   8.10000  1.929961E-08
   8.12000  1.911535E-08
   8.14000  1.892337E-08
   8.16000  1.874943E-08
   8.18000  1.856742E-08
   8.20000  1.838876E-08
   8.22000  1.821160E-08
   8.24000  1.803228E-08
   8.26000  1.786380E-08
   8.28000  1.769277E-08
   8.30000  1.751855E-08
   8.32000  1.735517E-08
   8.34000  1.719424E-08
   8.36000  1.702439E-08
   8.38000  1.687020E-08
   8.40000  1.670686E-08
   8.42000  1.655128E-08
   8.44000  1.639942E-08
   8.46000  1.623651E-08
   8.48000  1.609537E-08
   8.50000  1.594306E-08
   8.52000  1.579384E-08
   8.54000  1.565144E-08
   8.56000  1.549925E-08
   8.58000  1.536086E-08
   8.60000  1.522283E-08
   8.62000  1.508080E-08
   8.64000  1.493889E-08
   8.66000  1.480503E-08
   8.68000  1.467091E-08
   8.70000  1.453758E-08
   8.72000  1.440784E-08
   8.74000  1.427257E-08
   8.76000  1.413793E-08
   8.78000  1.400923E-08
   8.80000  1.388566E-08
   8.82000  1.376755E-08
   8.84000  1.364292E-08
   8.86000  1.351889E-08
   8.88000  1.340408E-08
   8.90000  1.327844E-08
   8.92000  1.315733E-08
   8.94000  1.304077E-08
   8.96000  1.293282E-08
   8.98000  1.281383E-08
   9.00000  1.270966E-08
   9.02000  1.258797E-08
   9.04000  1.248504E-08
   9.06000  1.237093E-08
   9.08000  1.226466E-08
   9.10000  1.216170E-08
   9.12000  1.205182E-08
   9.14000  1.194506E-08
   9.16000  1.184558E-08
   9.18000  1.174886E-08
   9.20000  1.164509E-08
   9.22000  1.154610E-08
   9.24000  1.143959E-08
   9.26000  1.134970E-08
   9.28000  1.125208E-08
   9.30000  1.115117E-08
   9.32000  1.106193E-08
   9.34000  1.096922E-08
   9.36000  1.087232E-08
   9.38000  1.078364E-08
   9.40000  1.069423E-08
   9.42000  1.059760E-08
   9.44000  1.051519E-08
   9.46000  1.042901E-08
   9.48000  1.033466E-08
   9.50000  1.025491E-08
   9.52000  1.017028E-08
   9.54000  1.008179E-08
   9.56000  9.997376E-09
   9.58000  9.914588E-09
   9.60000  9.838923E-09
   9.62000  9.755857E-09
   9.64000  9.676376E-09
   9.66000  9.592794E-09
   9.68000  9.515804E-09
   9.70000  9.440018E-09
   9.72000  9.361937E-09
   9.74000  9.284974E-09
   9.76000  9.213118E-09
   9.78000  9.138699E-09
   9.80000  9.065205E-09
   9.82000  8.992066E-09
   9.84000  8.919736E-09
   9.86000  8.849764E-09
   9.88000  8.778284E-09
   9.90000  8.703823E-09
   9.92000  8.638042E-09
   9.94000  8.569095E-09
   9.96000  8.498452E-09
   9.98000  8.429610E-09
   10.0000  8.364007E-09
