Ni Rho=8.902, Sig=0.nm, P=1., E=26000.eV
 Angle (deg), Reflectivity
   0.000000  1.00000
   2.000000E-02  0.994126
   4.000000E-02  0.987851
   6.000000E-02  0.980564
   8.000000E-02  0.971088
   0.100000  0.956183
   0.120000  0.918338
   0.140000  0.238929
   0.160000  7.524561E-02
   0.180000  3.555873E-02
   0.200000  1.979320E-02
   0.220000  1.212787E-02
   0.240000  7.931530E-03
   0.260000  5.441955E-03
   0.280000  3.875117E-03
   0.300000  2.842950E-03
   0.320000  2.137640E-03
   0.340000  1.640920E-03
   0.360000  1.282122E-03
   0.380000  1.017266E-03
   0.400000  8.180480E-04
   0.420000  6.657141E-04
   0.440000  5.475256E-04
   0.460000  4.546282E-04
   0.480000  3.807537E-04
   0.500000  3.213860E-04
   0.520000  2.732190E-04
   0.540000  2.337934E-04
   0.560000  2.012648E-04
   0.580000  1.742285E-04
   0.600000  1.516023E-04
   0.620000  1.325482E-04
   0.640000  1.164071E-04
   0.660000  1.026592E-04
   0.680000  9.088875E-05
   0.700000  8.076372E-05
   0.720000  7.201404E-05
   0.740000  6.442153E-05
   0.760000  5.780617E-05
   0.780000  5.202163E-05
   0.800000  4.694446E-05
   0.820000  4.247279E-05
   0.840000  3.852262E-05
   0.860000  3.502221E-05
   0.880000  3.191166E-05
   0.900000  2.913943E-05
   0.920000  2.666199E-05
   0.940000  2.444310E-05
   0.960000  2.245095E-05
   0.980000  2.065774E-05
   1.00000  1.904050E-05
   1.02000  1.757878E-05
   1.04000  1.625437E-05
   1.06000  1.505311E-05
   1.08000  1.396097E-05
   1.10000  1.296595E-05
   1.12000  1.205831E-05
   1.14000  1.122890E-05
   1.16000  1.046943E-05
   1.18000  9.773302E-06
   1.20000  9.134260E-06
   1.22000  8.546473E-06
   1.24000  8.005358E-06
   1.26000  7.506577E-06
   1.28000  7.045902E-06
   1.30000  6.620017E-06
   1.32000  6.226198E-06
   1.34000  5.860879E-06
   1.36000  5.522149E-06
   1.38000  5.207593E-06
   1.40000  4.915155E-06
   1.42000  4.642876E-06
   1.44000  4.389252E-06
   1.46000  4.152706E-06
   1.48000  3.932062E-06
   1.50000  3.725807E-06
   1.52000  3.532866E-06
   1.54000  3.352211E-06
   1.56000  3.182975E-06
   1.58000  3.024343E-06
   1.60000  2.875474E-06
   1.62000  2.735635E-06
   1.64000  2.604298E-06
   1.66000  2.480630E-06
   1.68000  2.364339E-06
   1.70000  2.254660E-06
   1.72000  2.151368E-06
   1.74000  2.053926E-06
   1.76000  1.961942E-06
   1.78000  1.874962E-06
   1.80000  1.792775E-06
   1.82000  1.715099E-06
   1.84000  1.641601E-06
   1.86000  1.571939E-06
   1.88000  1.506071E-06
   1.90000  1.443556E-06
   1.92000  1.384179E-06
   1.94000  1.327813E-06
   1.96000  1.274396E-06
   1.98000  1.223559E-06
   2.00000  1.175328E-06
   2.02000  1.129307E-06
   2.04000  1.085598E-06
   2.06000  1.044048E-06
   2.08000  1.004338E-06
   2.10000  9.665488E-07
   2.12000  9.306248E-07
   2.14000  8.962128E-07
   2.16000  8.634673E-07
   2.18000  8.321297E-07
   2.20000  8.023033E-07
   2.22000  7.736620E-07
   2.24000  7.463906E-07
   2.26000  7.202835E-07
   2.28000  6.952939E-07
   2.30000  6.714221E-07
   2.32000  6.485784E-07
   2.34000  6.266635E-07
   2.36000  6.056289E-07
   2.38000  5.855407E-07
   2.40000  5.662395E-07
   2.42000  5.477507E-07
   2.44000  5.299854E-07
   2.46000  5.129367E-07
   2.48000  4.965455E-07
   2.50000  4.808378E-07
   2.52000  4.657580E-07
   2.54000  4.512581E-07
   2.56000  4.373063E-07
   2.58000  4.238789E-07
   2.60000  4.109663E-07
   2.62000  3.986143E-07
   2.64000  3.866747E-07
   2.66000  3.751289E-07
   2.68000  3.640722E-07
   2.70000  3.533853E-07
   2.72000  3.430977E-07
   2.74000  3.331898E-07
   2.76000  3.236296E-07
   2.78000  3.144142E-07
   2.80000  3.055000E-07
   2.82000  2.969411E-07
   2.84000  2.886945E-07
   2.86000  2.806666E-07
   2.88000  2.729504E-07
   2.90000  2.655073E-07
   2.92000  2.582966E-07
   2.94000  2.513356E-07
   2.96000  2.446274E-07
   2.98000  2.381195E-07
   3.00000  2.318369E-07
   3.02000  2.257491E-07
   3.04000  2.198806E-07
   3.06000  2.141568E-07
   3.08000  2.086538E-07
   3.10000  2.033431E-07
   3.12000  1.981553E-07
   3.14000  1.931626E-07
   3.16000  1.883265E-07
   3.18000  1.836240E-07
   3.20000  1.790936E-07
   3.22000  1.746689E-07
   3.24000  1.704065E-07
   3.26000  1.662692E-07
   3.28000  1.622516E-07
   3.30000  1.583486E-07
   3.32000  1.545692E-07
   3.34000  1.509058E-07
   3.36000  1.473441E-07
   3.38000  1.439020E-07
   3.40000  1.405273E-07
   3.42000  1.372759E-07
   3.44000  1.341195E-07
   3.46000  1.310309E-07
   3.48000  1.280532E-07
   3.50000  1.251587E-07
   3.52000  1.223442E-07
   3.54000  1.196062E-07
   3.56000  1.169210E-07
   3.58000  1.143371E-07
   3.60000  1.118300E-07
   3.62000  1.093869E-07
   3.64000  1.069761E-07
   3.66000  1.046720E-07
   3.68000  1.024145E-07
   3.70000  1.002376E-07
   3.72000  9.810265E-08
   3.74000  9.600691E-08
   3.76000  9.398497E-08
   3.78000  9.201418E-08
   3.80000  9.007788E-08
   3.82000  8.822380E-08
   3.84000  8.639831E-08
   3.86000  8.463229E-08
   3.88000  8.289374E-08
   3.90000  8.122495E-08
   3.92000  7.954961E-08
   3.94000  7.795659E-08
   3.96000  7.641238E-08
   3.98000  7.487223E-08
   4.00000  7.340699E-08
   4.02000  7.195634E-08
   4.04000  7.054776E-08
   4.06000  6.913952E-08
   4.08000  6.781028E-08
   4.10000  6.650609E-08
   4.12000  6.522262E-08
   4.14000  6.397362E-08
   4.16000  6.274652E-08
   4.18000  6.156233E-08
   4.20000  6.039409E-08
   4.22000  5.926931E-08
   4.24000  5.815831E-08
   4.26000  5.707423E-08
   4.28000  5.600225E-08
   4.30000  5.497860E-08
   4.32000  5.396491E-08
   4.34000  5.297394E-08
   4.36000  5.200873E-08
   4.38000  5.107858E-08
   4.40000  5.015498E-08
   4.42000  4.925032E-08
   4.44000  4.837240E-08
   4.46000  4.752005E-08
   4.48000  4.667155E-08
   4.50000  4.585509E-08
   4.52000  4.505328E-08
   4.54000  4.425360E-08
   4.56000  4.348308E-08
   4.58000  4.273288E-08
   4.60000  4.199050E-08
   4.62000  4.127847E-08
   4.64000  4.058004E-08
   4.66000  3.987330E-08
   4.68000  3.919745E-08
   4.70000  3.853745E-08
   4.72000  3.789263E-08
   4.74000  3.725814E-08
   4.76000  3.663759E-08
   4.78000  3.603678E-08
   4.80000  3.543807E-08
   4.82000  3.484126E-08
   4.84000  3.427884E-08
   4.86000  3.372310E-08
   4.88000  3.317619E-08
   4.90000  3.263682E-08
   4.92000  3.211276E-08
   4.94000  3.158797E-08
   4.96000  3.108306E-08
   4.98000  3.059174E-08
   5.00000  3.010392E-08
   5.02000  2.963396E-08
   5.04000  2.916144E-08
   5.06000  2.870575E-08
   5.08000  2.826115E-08
   5.10000  2.781811E-08
   5.12000  2.738127E-08
   5.14000  2.696387E-08
   5.16000  2.654631E-08
   5.18000  2.614298E-08
   5.20000  2.574811E-08
   5.22000  2.534830E-08
   5.24000  2.497418E-08
   5.26000  2.459451E-08
   5.28000  2.422199E-08
   5.30000  2.386074E-08
   5.32000  2.350582E-08
   5.34000  2.315299E-08
   5.36000  2.281406E-08
   5.38000  2.247255E-08
   5.40000  2.214811E-08
   5.42000  2.182443E-08
   5.44000  2.150137E-08
   5.46000  2.119017E-08
   5.48000  2.089032E-08
   5.50000  2.057904E-08
   5.52000  2.028965E-08
   5.54000  1.999952E-08
   5.56000  1.971552E-08
   5.58000  1.943041E-08
   5.60000  1.915467E-08
   5.62000  1.888792E-08
   5.64000  1.861565E-08
   5.66000  1.836209E-08
   5.68000  1.810257E-08
   5.70000  1.785085E-08
   5.72000  1.759668E-08
   5.74000  1.735599E-08
   5.76000  1.711850E-08
   5.78000  1.688762E-08
   5.80000  1.664992E-08
   5.82000  1.642429E-08
   5.84000  1.620451E-08
   5.86000  1.598675E-08
   5.88000  1.577081E-08
   5.90000  1.555455E-08
   5.92000  1.534530E-08
   5.94000  1.514267E-08
   5.96000  1.494450E-08
   5.98000  1.473843E-08
   6.00000  1.454692E-08
   6.02000  1.435923E-08
   6.04000  1.416834E-08
   6.06000  1.398101E-08
   6.08000  1.379856E-08
   6.10000  1.361589E-08
   6.12000  1.344577E-08
   6.14000  1.327027E-08
   6.16000  1.309876E-08
   6.18000  1.292644E-08
   6.20000  1.276552E-08
   6.22000  1.260339E-08
   6.24000  1.244438E-08
   6.26000  1.228395E-08
   6.28000  1.212954E-08
   6.30000  1.197772E-08
   6.32000  1.182830E-08
   6.34000  1.168108E-08
   6.36000  1.153182E-08
   6.38000  1.139169E-08
   6.40000  1.124615E-08
   6.42000  1.110844E-08
   6.44000  1.096910E-08
   6.46000  1.084181E-08
   6.48000  1.070488E-08
   6.50000  1.057953E-08
   6.52000  1.044450E-08
   6.54000  1.032059E-08
   6.56000  1.019358E-08
   6.58000  1.007062E-08
   6.60000  9.947962E-09
   6.62000  9.831921E-09
   6.64000  9.712970E-09
   6.66000  9.600266E-09
   6.68000  9.481091E-09
   6.70000  9.371211E-09
   6.72000  9.260877E-09
   6.74000  9.153259E-09
   6.76000  9.044988E-09
   6.78000  8.939167E-09
   6.80000  8.832512E-09
   6.82000  8.733925E-09
   6.84000  8.631480E-09
   6.86000  8.530945E-09
   6.88000  8.434911E-09
   6.90000  8.334821E-09
   6.92000  8.241706E-09
   6.94000  8.144612E-09
   6.96000  8.054364E-09
   6.98000  7.959768E-09
   7.00000  7.874482E-09
   7.02000  7.781912E-09
   7.04000  7.695571E-09
   7.06000  7.612631E-09
   7.08000  7.525005E-09
   7.10000  7.443136E-09
   7.12000  7.356501E-09
   7.14000  7.277943E-09
   7.16000  7.194489E-09
   7.18000  7.118765E-09
   7.20000  7.040521E-09
   7.22000  6.959759E-09
   7.24000  6.883797E-09
   7.26000  6.807604E-09
   7.28000  6.731126E-09
   7.30000  6.659018E-09
   7.32000  6.586420E-09
   7.34000  6.513289E-09
   7.36000  6.444137E-09
   7.38000  6.378779E-09
   7.40000  6.312573E-09
   7.42000  6.245486E-09
   7.44000  6.177489E-09
   7.46000  6.112871E-09
   7.48000  6.042571E-09
   7.50000  5.984297E-09
   7.52000  5.915984E-09
   7.54000  5.859341E-09
   7.56000  5.796773E-09
   7.58000  5.732843E-09
   7.60000  5.671552E-09
   7.62000  5.612762E-09
   7.64000  5.556344E-09
   7.66000  5.498285E-09
   7.68000  5.442429E-09
   7.70000  5.388657E-09
   7.72000  5.328755E-09
   7.74000  5.278869E-09
   7.76000  5.222756E-09
   7.78000  5.172668E-09
   7.80000  5.119959E-09
   7.82000  5.068813E-09
   7.84000  5.015589E-09
   7.86000  4.967319E-09
   7.88000  4.916859E-09
   7.90000  4.863544E-09
   7.92000  4.818959E-09
   7.94000  4.772035E-09
   7.96000  4.722076E-09
   7.98000  4.676409E-09
   8.00000  4.628319E-09
   8.02000  4.580320E-09
   8.04000  4.541010E-09
   8.06000  4.497583E-09
   8.08000  4.445281E-09
   8.10000  4.403006E-09
   8.12000  4.361970E-09
   8.14000  4.316668E-09
   8.16000  4.279419E-09
   8.18000  4.237760E-09
   8.20000  4.197148E-09
   8.22000  4.156716E-09
   8.24000  4.114717E-09
   8.26000  4.077373E-09
   8.28000  4.038289E-09
   8.30000  3.997174E-09
   8.32000  3.960729E-09
   8.34000  3.924966E-09
   8.36000  3.884443E-09
   8.38000  3.850930E-09
   8.40000  3.812566E-09
   8.42000  3.777441E-09
   8.44000  3.743631E-09
   8.46000  3.704084E-09
   8.48000  3.674496E-09
   8.50000  3.639123E-09
   8.52000  3.604791E-09
   8.54000  3.573288E-09
   8.56000  3.536681E-09
   8.58000  3.506256E-09
   8.60000  3.475586E-09
   8.62000  3.442596E-09
   8.64000  3.409262E-09
   8.66000  3.379382E-09
   8.68000  3.348987E-09
   8.70000  3.318585E-09
   8.72000  3.289518E-09
   8.74000  3.257430E-09
   8.76000  3.225280E-09
   8.78000  3.195599E-09
   8.80000  3.168013E-09
   8.82000  3.142683E-09
   8.84000  3.113883E-09
   8.86000  3.085027E-09
   8.88000  3.060238E-09
   8.90000  3.029933E-09
   8.92000  3.001465E-09
   8.94000  2.974847E-09
   8.96000  2.952016E-09
   8.98000  2.923592E-09
   9.00000  2.901939E-09
   9.02000  2.871601E-09
   9.04000  2.849925E-09
   9.06000  2.822601E-09
   9.08000  2.798729E-09
   9.10000  2.776144E-09
   9.12000  2.749959E-09
   9.14000  2.724980E-09
   9.16000  2.703203E-09
   9.18000  2.682460E-09
   9.20000  2.658074E-09
   9.22000  2.635700E-09
   9.24000  2.609467E-09
   9.26000  2.590909E-09
   9.28000  2.568399E-09
   9.30000  2.544057E-09
   9.32000  2.525037E-09
   9.34000  2.504104E-09
   9.36000  2.480922E-09
   9.38000  2.461429E-09
   9.40000  2.441337E-09
   9.42000  2.417562E-09
   9.44000  2.400346E-09
   9.46000  2.381092E-09
   9.48000  2.357709E-09
   9.50000  2.341070E-09
   9.52000  2.321881E-09
   9.54000  2.300619E-09
   9.56000  2.281092E-09
   9.58000  2.262125E-09
   9.60000  2.246348E-09
   9.62000  2.226825E-09
   9.64000  2.208806E-09
   9.66000  2.188622E-09
   9.68000  2.171385E-09
   9.70000  2.154524E-09
   9.72000  2.136368E-09
   9.74000  2.118551E-09
   9.76000  2.102982E-09
   9.78000  2.085997E-09
   9.80000  2.069266E-09
   9.82000  2.052518E-09
   9.84000  2.035973E-09
   9.86000  2.020373E-09
   9.88000  2.003874E-09
   9.90000  1.985772E-09
   9.92000  1.971644E-09
   9.94000  1.955829E-09
   9.96000  1.939033E-09
   9.98000  1.922929E-09
   10.0000  1.908207E-09
