Ni Rho=8.902, Sig=0.nm, P=1., E=24000.eV
 Angle (deg), Reflectivity
   0.000000  1.00000
   2.000000E-02  0.993728
   4.000000E-02  0.987104
   6.000000E-02  0.979609
   8.000000E-02  0.970346
   0.100000  0.957245
   0.120000  0.933146
   0.140000  0.801211
   0.160000  0.140720
   0.180000  5.844530E-02
   0.200000  3.079853E-02
   0.220000  1.830369E-02
   0.240000  1.174057E-02
   0.260000  7.948781E-03
   0.280000  5.605799E-03
   0.300000  4.082855E-03
   0.320000  3.052666E-03
   0.340000  2.332849E-03
   0.360000  1.816157E-03
   0.380000  1.436690E-03
   0.400000  1.152464E-03
   0.420000  9.358913E-04
   0.440000  7.683619E-04
   0.460000  6.370163E-04
   0.480000  5.327952E-04
   0.500000  4.491988E-04
   0.520000  3.814864E-04
   0.540000  3.261439E-04
   0.560000  2.805417E-04
   0.580000  2.426825E-04
   0.600000  2.110317E-04
   0.620000  1.844020E-04
   0.640000  1.618622E-04
   0.660000  1.426786E-04
   0.680000  1.262656E-04
   0.700000  1.121557E-04
   0.720000  9.996945E-05
   0.740000  8.940024E-05
   0.760000  8.019574E-05
   0.780000  7.215057E-05
   0.800000  6.509212E-05
   0.820000  5.887790E-05
   0.840000  5.339021E-05
   0.860000  4.852892E-05
   0.880000  4.421026E-05
   0.900000  4.036243E-05
   0.920000  3.692474E-05
   0.940000  3.384650E-05
   0.960000  3.108339E-05
   0.980000  2.859680E-05
   1.00000  2.635464E-05
   1.02000  2.432847E-05
   1.04000  2.249305E-05
   1.06000  2.082846E-05
   1.08000  1.931532E-05
   1.10000  1.793700E-05
   1.12000  1.667986E-05
   1.14000  1.553121E-05
   1.16000  1.447961E-05
   1.18000  1.351580E-05
   1.20000  1.263110E-05
   1.22000  1.181749E-05
   1.24000  1.106854E-05
   1.26000  1.037823E-05
   1.28000  9.740750E-06
   1.30000  9.151477E-06
   1.32000  8.606545E-06
   1.34000  8.101173E-06
   1.36000  7.632583E-06
   1.38000  7.197462E-06
   1.40000  6.792962E-06
   1.42000  6.416393E-06
   1.44000  6.065638E-06
   1.46000  5.738525E-06
   1.48000  5.433385E-06
   1.50000  5.148181E-06
   1.52000  4.881411E-06
   1.54000  4.631652E-06
   1.56000  4.397690E-06
   1.58000  4.178387E-06
   1.60000  3.972592E-06
   1.62000  3.779293E-06
   1.64000  3.597734E-06
   1.66000  3.426812E-06
   1.68000  3.266066E-06
   1.70000  3.114492E-06
   1.72000  2.971729E-06
   1.74000  2.837058E-06
   1.76000  2.709936E-06
   1.78000  2.589753E-06
   1.80000  2.476189E-06
   1.82000  2.368851E-06
   1.84000  2.267287E-06
   1.86000  2.171040E-06
   1.88000  2.080009E-06
   1.90000  1.993629E-06
   1.92000  1.911602E-06
   1.94000  1.833739E-06
   1.96000  1.759928E-06
   1.98000  1.689702E-06
   2.00000  1.623058E-06
   2.02000  1.559499E-06
   2.04000  1.499117E-06
   2.06000  1.441707E-06
   2.08000  1.386866E-06
   2.10000  1.334670E-06
   2.12000  1.285028E-06
   2.14000  1.237508E-06
   2.16000  1.192271E-06
   2.18000  1.148995E-06
   2.20000  1.107785E-06
   2.22000  1.068244E-06
   2.24000  1.030572E-06
   2.26000  9.945151E-07
   2.28000  9.600050E-07
   2.30000  9.270304E-07
   2.32000  8.954740E-07
   2.34000  8.652087E-07
   2.36000  8.361675E-07
   2.38000  8.084182E-07
   2.40000  7.817650E-07
   2.42000  7.562292E-07
   2.44000  7.316982E-07
   2.46000  7.081567E-07
   2.48000  6.855279E-07
   2.50000  6.638360E-07
   2.52000  6.430090E-07
   2.54000  6.229849E-07
   2.56000  6.037203E-07
   2.58000  5.851822E-07
   2.60000  5.673544E-07
   2.62000  5.502858E-07
   2.64000  5.337977E-07
   2.66000  5.178640E-07
   2.68000  5.025925E-07
   2.70000  4.878394E-07
   2.72000  4.736355E-07
   2.74000  4.599543E-07
   2.76000  4.467549E-07
   2.78000  4.340309E-07
   2.80000  4.217279E-07
   2.82000  4.099068E-07
   2.84000  3.985141E-07
   2.86000  3.874376E-07
   2.88000  3.767838E-07
   2.90000  3.665054E-07
   2.92000  3.565519E-07
   2.94000  3.469419E-07
   2.96000  3.376769E-07
   2.98000  3.286932E-07
   3.00000  3.200186E-07
   3.02000  3.116153E-07
   3.04000  3.035105E-07
   3.06000  2.956149E-07
   3.08000  2.880164E-07
   3.10000  2.806802E-07
   3.12000  2.735232E-07
   3.14000  2.666289E-07
   3.16000  2.599511E-07
   3.18000  2.534611E-07
   3.20000  2.472034E-07
   3.22000  2.410986E-07
   3.24000  2.352124E-07
   3.26000  2.294998E-07
   3.28000  2.239536E-07
   3.30000  2.185670E-07
   3.32000  2.133493E-07
   3.34000  2.082912E-07
   3.36000  2.033749E-07
   3.38000  1.986205E-07
   3.40000  1.939660E-07
   3.42000  1.894765E-07
   3.44000  1.851179E-07
   3.46000  1.808576E-07
   3.48000  1.767455E-07
   3.50000  1.727488E-07
   3.52000  1.688627E-07
   3.54000  1.650827E-07
   3.56000  1.613806E-07
   3.58000  1.578126E-07
   3.60000  1.543496E-07
   3.62000  1.509758E-07
   3.64000  1.476538E-07
   3.66000  1.444705E-07
   3.68000  1.413548E-07
   3.70000  1.383461E-07
   3.72000  1.353988E-07
   3.74000  1.325092E-07
   3.76000  1.297177E-07
   3.78000  1.269971E-07
   3.80000  1.243276E-07
   3.82000  1.217651E-07
   3.84000  1.192460E-07
   3.86000  1.168064E-07
   3.88000  1.144085E-07
   3.90000  1.121015E-07
   3.92000  1.097957E-07
   3.94000  1.075950E-07
   3.96000  1.054600E-07
   3.98000  1.033377E-07
   4.00000  1.013112E-07
   4.02000  9.930942E-08
   4.04000  9.736436E-08
   4.06000  9.542677E-08
   4.08000  9.358892E-08
   4.10000  9.178717E-08
   4.12000  9.001627E-08
   4.14000  8.829218E-08
   4.16000  8.659995E-08
   4.18000  8.496408E-08
   4.20000  8.335274E-08
   4.22000  8.179809E-08
   4.24000  8.026508E-08
   4.26000  7.876901E-08
   4.28000  7.729233E-08
   4.30000  7.587744E-08
   4.32000  7.447914E-08
   4.34000  7.311228E-08
   4.36000  7.178028E-08
   4.38000  7.049398E-08
   4.40000  6.921975E-08
   4.42000  6.797202E-08
   4.44000  6.675983E-08
   4.46000  6.558172E-08
   4.48000  6.441206E-08
   4.50000  6.328385E-08
   4.52000  6.217657E-08
   4.54000  6.107540E-08
   4.56000  6.001203E-08
   4.58000  5.897594E-08
   4.60000  5.795240E-08
   4.62000  5.696775E-08
   4.64000  5.600227E-08
   4.66000  5.503011E-08
   4.68000  5.409726E-08
   4.70000  5.318596E-08
   4.72000  5.229536E-08
   4.74000  5.141968E-08
   4.76000  5.056310E-08
   4.78000  4.973236E-08
   4.80000  4.890667E-08
   4.82000  4.808574E-08
   4.84000  4.730767E-08
   4.86000  4.653985E-08
   4.88000  4.578473E-08
   4.90000  4.504077E-08
   4.92000  4.431702E-08
   4.94000  4.359459E-08
   4.96000  4.289763E-08
   4.98000  4.221871E-08
   5.00000  4.154592E-08
   5.02000  4.089609E-08
   5.04000  4.024518E-08
   5.06000  3.961592E-08
   5.08000  3.900153E-08
   5.10000  3.839076E-08
   5.12000  3.778904E-08
   5.14000  3.721187E-08
   5.16000  3.663617E-08
   5.18000  3.607883E-08
   5.20000  3.553302E-08
   5.22000  3.498297E-08
   5.24000  3.446463E-08
   5.26000  3.394125E-08
   5.28000  3.342773E-08
   5.30000  3.292887E-08
   5.32000  3.243885E-08
   5.34000  3.195263E-08
   5.36000  3.148408E-08
   5.38000  3.101379E-08
   5.40000  3.056482E-08
   5.42000  3.011801E-08
   5.44000  2.967313E-08
   5.46000  2.924338E-08
   5.48000  2.882812E-08
   5.50000  2.840057E-08
   5.52000  2.799985E-08
   5.54000  2.759935E-08
   5.56000  2.720713E-08
   5.58000  2.681464E-08
   5.60000  2.643419E-08
   5.62000  2.606529E-08
   5.64000  2.569089E-08
   5.66000  2.533942E-08
   5.68000  2.498189E-08
   5.70000  2.463444E-08
   5.72000  2.428501E-08
   5.74000  2.395230E-08
   5.76000  2.362422E-08
   5.78000  2.330473E-08
   5.80000  2.297807E-08
   5.82000  2.266640E-08
   5.84000  2.236239E-08
   5.86000  2.206153E-08
   5.88000  2.176357E-08
   5.90000  2.146599E-08
   5.92000  2.117737E-08
   5.94000  2.089724E-08
   5.96000  2.062304E-08
   5.98000  2.034026E-08
   6.00000  2.007526E-08
   6.02000  1.981540E-08
   6.04000  1.955245E-08
   6.06000  1.929430E-08
   6.08000  1.904251E-08
   6.10000  1.879108E-08
   6.12000  1.855497E-08
   6.14000  1.831314E-08
   6.16000  1.807658E-08
   6.18000  1.783962E-08
   6.20000  1.761661E-08
   6.22000  1.739272E-08
   6.24000  1.717303E-08
   6.26000  1.695219E-08
   6.28000  1.673895E-08
   6.30000  1.652924E-08
   6.32000  1.632284E-08
   6.34000  1.611953E-08
   6.36000  1.591428E-08
   6.38000  1.572023E-08
   6.40000  1.552027E-08
   6.42000  1.532997E-08
   6.44000  1.513819E-08
   6.46000  1.496100E-08
   6.48000  1.477291E-08
   6.50000  1.459882E-08
   6.52000  1.441379E-08
   6.54000  1.424222E-08
   6.56000  1.406741E-08
   6.58000  1.389773E-08
   6.60000  1.372880E-08
   6.62000  1.356800E-08
   6.64000  1.340416E-08
   6.66000  1.324802E-08
   6.68000  1.308462E-08
   6.70000  1.293250E-08
   6.72000  1.278018E-08
   6.74000  1.263138E-08
   6.76000  1.248215E-08
   6.78000  1.233612E-08
   6.80000  1.218943E-08
   6.82000  1.205252E-08
   6.84000  1.191140E-08
   6.86000  1.177281E-08
   6.88000  1.163981E-08
   6.90000  1.150234E-08
   6.92000  1.137334E-08
   6.94000  1.123996E-08
   6.96000  1.111489E-08
   6.98000  1.098498E-08
   7.00000  1.086628E-08
   7.02000  1.073928E-08
   7.04000  1.061986E-08
   7.06000  1.050469E-08
   7.08000  1.038426E-08
   7.10000  1.027084E-08
   7.12000  1.015206E-08
   7.14000  1.004300E-08
   7.16000  9.928433E-09
   7.18000  9.823170E-09
   7.20000  9.715173E-09
   7.22000  9.604438E-09
   7.24000  9.499561E-09
   7.26000  9.394626E-09
   7.28000  9.289566E-09
   7.30000  9.189848E-09
   7.32000  9.089759E-09
   7.34000  8.989243E-09
   7.36000  8.893600E-09
   7.38000  8.802607E-09
   7.40000  8.710808E-09
   7.42000  8.618164E-09
   7.44000  8.524633E-09
   7.46000  8.435256E-09
   7.48000  8.339383E-09
   7.50000  8.257811E-09
   7.52000  8.164622E-09
   7.54000  8.085311E-09
   7.56000  7.999209E-09
   7.58000  7.911672E-09
   7.60000  7.827397E-09
   7.62000  7.746221E-09
   7.64000  7.667989E-09
   7.66000  7.587984E-09
   7.68000  7.510719E-09
   7.70000  7.436054E-09
   7.72000  7.354335E-09
   7.74000  7.284529E-09
   7.76000  7.207551E-09
   7.78000  7.137791E-09
   7.80000  7.065093E-09
   7.82000  6.994367E-09
   7.84000  6.921335E-09
   7.86000  6.854255E-09
   7.88000  6.784734E-09
   7.90000  6.711988E-09
   7.92000  6.649624E-09
   7.94000  6.584637E-09
   7.96000  6.516208E-09
   7.98000  6.452944E-09
   8.00000  6.386951E-09
   8.02000  6.321184E-09
   8.04000  6.265739E-09
   8.06000  6.205573E-09
   8.08000  6.135094E-09
   8.10000  6.076503E-09
   8.12000  6.019479E-09
   8.14000  5.957550E-09
   8.16000  5.905188E-09
   8.18000  5.847751E-09
   8.20000  5.791645E-09
   8.22000  5.735852E-09
   8.24000  5.678319E-09
   8.26000  5.626353E-09
   8.28000  5.572440E-09
   8.30000  5.516237E-09
   8.32000  5.465614E-09
   8.34000  5.415886E-09
   8.36000  5.360658E-09
   8.38000  5.313754E-09
   8.40000  5.261243E-09
   8.42000  5.212623E-09
   8.44000  5.165635E-09
   8.46000  5.111993E-09
   8.48000  5.070133E-09
   8.50000  5.021562E-09
   8.52000  4.974296E-09
   8.54000  4.930432E-09
   8.56000  4.880653E-09
   8.58000  4.838214E-09
   8.60000  4.795565E-09
   8.62000  4.750268E-09
   8.64000  4.704642E-09
   8.66000  4.663146E-09
   8.68000  4.621119E-09
   8.70000  4.579157E-09
   8.72000  4.538834E-09
   8.74000  4.495032E-09
   8.76000  4.451227E-09
   8.78000  4.410390E-09
   8.80000  4.372082E-09
   8.82000  4.336489E-09
   8.84000  4.296888E-09
   8.86000  4.257285E-09
   8.88000  4.222523E-09
   8.90000  4.181345E-09
   8.92000  4.142386E-09
   8.94000  4.105662E-09
   8.96000  4.073447E-09
   8.98000  4.034722E-09
   9.00000  4.004009E-09
   9.02000  3.963152E-09
   9.04000  3.932529E-09
   9.06000  3.895327E-09
   9.08000  3.862235E-09
   9.10000  3.830711E-09
   9.12000  3.795013E-09
   9.14000  3.760785E-09
   9.16000  3.730371E-09
   9.18000  3.701223E-09
   9.20000  3.667849E-09
   9.22000  3.636889E-09
   9.24000  3.601446E-09
   9.26000  3.575068E-09
   9.28000  3.544097E-09
   9.30000  3.511022E-09
   9.32000  3.484247E-09
   9.34000  3.455271E-09
   9.36000  3.423702E-09
   9.38000  3.396510E-09
   9.40000  3.368660E-09
   9.42000  3.336529E-09
   9.44000  3.312147E-09
   9.46000  3.285415E-09
   9.48000  3.253875E-09
   9.50000  3.230300E-09
   9.52000  3.203772E-09
   9.54000  3.174851E-09
   9.56000  3.148008E-09
   9.58000  3.121863E-09
   9.60000  3.099506E-09
   9.62000  3.072787E-09
   9.64000  3.047875E-09
   9.66000  3.020458E-09
   9.68000  2.996541E-09
   9.70000  2.973103E-09
   9.72000  2.948181E-09
   9.74000  2.923694E-09
   9.76000  2.901884E-09
   9.78000  2.878445E-09
   9.80000  2.855341E-09
   9.82000  2.832252E-09
   9.84000  2.809436E-09
   9.86000  2.787764E-09
   9.88000  2.765069E-09
   9.90000  2.740525E-09
   9.92000  2.720682E-09
   9.94000  2.698890E-09
   9.96000  2.675977E-09
   9.98000  2.653908E-09
   10.0000  2.633495E-09
