Ni Rho=8.902, Sig=0.nm, P=1., E=21000.eV
 Angle (deg), Reflectivity
   0.000000  1.00000
   2.000000E-02  0.993009
   4.000000E-02  0.985739
   6.000000E-02  0.977787
   8.000000E-02  0.968545
   0.100000  0.956886
   0.120000  0.940173
   0.140000  0.909382
   0.160000  0.761096
   0.180000  0.163071
   0.200000  7.090276E-02
   0.220000  3.861737E-02
   0.240000  2.355311E-02
   0.260000  1.543216E-02
   0.280000  1.063682E-02
   0.300000  7.617759E-03
   0.320000  5.623067E-03
   0.340000  4.254207E-03
   0.360000  3.285431E-03
   0.380000  2.581985E-03
   0.400000  2.059966E-03
   0.420000  1.665257E-03
   0.440000  1.361900E-03
   0.460000  1.125369E-03
   0.480000  9.385679E-04
   0.500000  7.893437E-04
   0.520000  6.689013E-04
   0.540000  5.707690E-04
   0.560000  4.901300E-04
   0.580000  4.233463E-04
   0.600000  3.676358E-04
   0.620000  3.208542E-04
   0.640000  2.813272E-04
   0.660000  2.477386E-04
   0.680000  2.190427E-04
   0.700000  1.944053E-04
   0.720000  1.731523E-04
   0.740000  1.547393E-04
   0.760000  1.387201E-04
   0.780000  1.247309E-04
   0.800000  1.124680E-04
   0.820000  1.016806E-04
   0.840000  9.216102E-05
   0.860000  8.373372E-05
   0.880000  7.625161E-05
   0.900000  6.958920E-05
   0.920000  6.364036E-05
   0.940000  5.831605E-05
   0.960000  5.353899E-05
   0.980000  4.924204E-05
   1.00000  4.536900E-05
   1.02000  4.187040E-05
   1.04000  3.870260E-05
   1.06000  3.583035E-05
   1.08000  3.322028E-05
   1.10000  3.084365E-05
   1.12000  2.867651E-05
   1.14000  2.669689E-05
   1.16000  2.488514E-05
   1.18000  2.322499E-05
   1.20000  2.170141E-05
   1.22000  2.030067E-05
   1.24000  1.901147E-05
   1.26000  1.782338E-05
   1.28000  1.672654E-05
   1.30000  1.571284E-05
   1.32000  1.477541E-05
   1.34000  1.390638E-05
   1.36000  1.310065E-05
   1.38000  1.235256E-05
   1.40000  1.165722E-05
   1.42000  1.101003E-05
   1.44000  1.040726E-05
   1.46000  9.845206E-06
   1.48000  9.320890E-06
   1.50000  8.830930E-06
   1.52000  8.372715E-06
   1.54000  7.943790E-06
   1.56000  7.542029E-06
   1.58000  7.165454E-06
   1.60000  6.812111E-06
   1.62000  6.480266E-06
   1.64000  6.168556E-06
   1.66000  5.875195E-06
   1.68000  5.599265E-06
   1.70000  5.339165E-06
   1.72000  5.094155E-06
   1.74000  4.863051E-06
   1.76000  4.644918E-06
   1.78000  4.438751E-06
   1.80000  4.243940E-06
   1.82000  4.059794E-06
   1.84000  3.885558E-06
   1.86000  3.720484E-06
   1.88000  3.564300E-06
   1.90000  3.416137E-06
   1.92000  3.275484E-06
   1.94000  3.141984E-06
   1.96000  3.015386E-06
   1.98000  2.894983E-06
   2.00000  2.780679E-06
   2.02000  2.671744E-06
   2.04000  2.568218E-06
   2.06000  2.469762E-06
   2.08000  2.375781E-06
   2.10000  2.286309E-06
   2.12000  2.201171E-06
   2.14000  2.119744E-06
   2.16000  2.042188E-06
   2.18000  1.968034E-06
   2.20000  1.897375E-06
   2.22000  1.829645E-06
   2.24000  1.765071E-06
   2.26000  1.703280E-06
   2.28000  1.644150E-06
   2.30000  1.587630E-06
   2.32000  1.533539E-06
   2.34000  1.481679E-06
   2.36000  1.431937E-06
   2.38000  1.384375E-06
   2.40000  1.338711E-06
   2.42000  1.294953E-06
   2.44000  1.252929E-06
   2.46000  1.212601E-06
   2.48000  1.173848E-06
   2.50000  1.136684E-06
   2.52000  1.100998E-06
   2.54000  1.066691E-06
   2.56000  1.033692E-06
   2.58000  1.001944E-06
   2.60000  9.714113E-07
   2.62000  9.421447E-07
   2.64000  9.138982E-07
   2.66000  8.866262E-07
   2.68000  8.604584E-07
   2.70000  8.351963E-07
   2.72000  8.108702E-07
   2.74000  7.874361E-07
   2.76000  7.648313E-07
   2.78000  7.430390E-07
   2.80000  7.219799E-07
   2.82000  7.017258E-07
   2.84000  6.821998E-07
   2.86000  6.632476E-07
   2.88000  6.450024E-07
   2.90000  6.273956E-07
   2.92000  6.103554E-07
   2.94000  5.939003E-07
   2.96000  5.780266E-07
   2.98000  5.626461E-07
   3.00000  5.477899E-07
   3.02000  5.334040E-07
   3.04000  5.195193E-07
   3.06000  5.060148E-07
   3.08000  4.930014E-07
   3.10000  4.804295E-07
   3.12000  4.681868E-07
   3.14000  4.563788E-07
   3.16000  4.449415E-07
   3.18000  4.338344E-07
   3.20000  4.231123E-07
   3.22000  4.126686E-07
   3.24000  4.025860E-07
   3.26000  3.928031E-07
   3.28000  3.833078E-07
   3.30000  3.740887E-07
   3.32000  3.651556E-07
   3.34000  3.564939E-07
   3.36000  3.480781E-07
   3.38000  3.399325E-07
   3.40000  3.319739E-07
   3.42000  3.242852E-07
   3.44000  3.168203E-07
   3.46000  3.095346E-07
   3.48000  3.024917E-07
   3.50000  2.956469E-07
   3.52000  2.889924E-07
   3.54000  2.825208E-07
   3.56000  2.761936E-07
   3.58000  2.700831E-07
   3.60000  2.641498E-07
   3.62000  2.583718E-07
   3.64000  2.526986E-07
   3.66000  2.472429E-07
   3.68000  2.419105E-07
   3.70000  2.367519E-07
   3.72000  2.317062E-07
   3.74000  2.267677E-07
   3.76000  2.219879E-07
   3.78000  2.173307E-07
   3.80000  2.127691E-07
   3.82000  2.083751E-07
   3.84000  2.040649E-07
   3.86000  1.998849E-07
   3.88000  1.957847E-07
   3.90000  1.918280E-07
   3.92000  1.878965E-07
   3.94000  1.841258E-07
   3.96000  1.804633E-07
   3.98000  1.768392E-07
   4.00000  1.733614E-07
   4.02000  1.699363E-07
   4.04000  1.666054E-07
   4.06000  1.633034E-07
   4.08000  1.601506E-07
   4.10000  1.570632E-07
   4.12000  1.540338E-07
   4.14000  1.510826E-07
   4.16000  1.481898E-07
   4.18000  1.453869E-07
   4.20000  1.426318E-07
   4.22000  1.399660E-07
   4.24000  1.373434E-07
   4.26000  1.347835E-07
   4.28000  1.322629E-07
   4.30000  1.298368E-07
   4.32000  1.274456E-07
   4.34000  1.251085E-07
   4.36000  1.228294E-07
   4.38000  1.206223E-07
   4.40000  1.184428E-07
   4.42000  1.163096E-07
   4.44000  1.142340E-07
   4.46000  1.122139E-07
   4.48000  1.102156E-07
   4.50000  1.082817E-07
   4.52000  1.063854E-07
   4.54000  1.045068E-07
   4.56000  1.026872E-07
   4.58000  1.009126E-07
   4.60000  9.916352E-08
   4.62000  9.747411E-08
   4.64000  9.581837E-08
   4.66000  9.416227E-08
   4.68000  9.256576E-08
   4.70000  9.100539E-08
   4.72000  8.947985E-08
   4.74000  8.798141E-08
   4.76000  8.651531E-08
   4.78000  8.509019E-08
   4.80000  8.367871E-08
   4.82000  8.228027E-08
   4.84000  8.094457E-08
   4.86000  7.962878E-08
   4.88000  7.833594E-08
   4.90000  7.706389E-08
   4.92000  7.582432E-08
   4.94000  7.459236E-08
   4.96000  7.339948E-08
   4.98000  7.223581E-08
   5.00000  7.108564E-08
   5.02000  6.997085E-08
   5.04000  6.885987E-08
   5.06000  6.778231E-08
   5.08000  6.672917E-08
   5.10000  6.568564E-08
   5.12000  6.465869E-08
   5.14000  6.366850E-08
   5.16000  6.268476E-08
   5.18000  6.172946E-08
   5.20000  6.079357E-08
   5.22000  5.985637E-08
   5.24000  5.896478E-08
   5.26000  5.807062E-08
   5.28000  5.719331E-08
   5.30000  5.633903E-08
   5.32000  5.550009E-08
   5.34000  5.466980E-08
   5.36000  5.386623E-08
   5.38000  5.306391E-08
   5.40000  5.229293E-08
   5.42000  5.152813E-08
   5.44000  5.076916E-08
   5.46000  5.003320E-08
   5.48000  4.931935E-08
   5.50000  4.859251E-08
   5.52000  4.790378E-08
   5.54000  4.721830E-08
   5.56000  4.654653E-08
   5.58000  4.587724E-08
   5.60000  4.522647E-08
   5.62000  4.459351E-08
   5.64000  4.395601E-08
   5.66000  4.335111E-08
   5.68000  4.274082E-08
   5.70000  4.214619E-08
   5.72000  4.155142E-08
   5.74000  4.098090E-08
   5.76000  4.041877E-08
   5.78000  3.987018E-08
   5.80000  3.931443E-08
   5.82000  3.878049E-08
   5.84000  3.825872E-08
   5.86000  3.774317E-08
   5.88000  3.723349E-08
   5.90000  3.672632E-08
   5.92000  3.623285E-08
   5.94000  3.575243E-08
   5.96000  3.528167E-08
   5.98000  3.480155E-08
   6.00000  3.434651E-08
   6.02000  3.389999E-08
   6.04000  3.345118E-08
   6.06000  3.301037E-08
   6.08000  3.257956E-08
   6.10000  3.215088E-08
   6.12000  3.174386E-08
   6.14000  3.133095E-08
   6.16000  3.092649E-08
   6.18000  3.052303E-08
   6.20000  3.013933E-08
   6.22000  2.975594E-08
   6.24000  2.937950E-08
   6.26000  2.900296E-08
   6.28000  2.863774E-08
   6.30000  2.827851E-08
   6.32000  2.792495E-08
   6.34000  2.757672E-08
   6.36000  2.722727E-08
   6.38000  2.689371E-08
   6.40000  2.655367E-08
   6.42000  2.622748E-08
   6.44000  2.590054E-08
   6.46000  2.559386E-08
   6.48000  2.527407E-08
   6.50000  2.497373E-08
   6.52000  2.466018E-08
   6.54000  2.436533E-08
   6.56000  2.406730E-08
   6.58000  2.377704E-08
   6.60000  2.348877E-08
   6.62000  2.321217E-08
   6.64000  2.293257E-08
   6.66000  2.266401E-08
   6.68000  2.238694E-08
   6.70000  2.212554E-08
   6.72000  2.186480E-08
   6.74000  2.160959E-08
   6.76000  2.135470E-08
   6.78000  2.110487E-08
   6.80000  2.085503E-08
   6.82000  2.061885E-08
   6.84000  2.037796E-08
   6.86000  2.014122E-08
   6.88000  1.991259E-08
   6.90000  1.967889E-08
   6.92000  1.945706E-08
   6.94000  1.923024E-08
   6.96000  1.901505E-08
   6.98000  1.879427E-08
   7.00000  1.858887E-08
   7.02000  1.837333E-08
   7.04000  1.816839E-08
   7.06000  1.796970E-08
   7.08000  1.776480E-08
   7.10000  1.756974E-08
   7.12000  1.736833E-08
   7.14000  1.718027E-08
   7.16000  1.698563E-08
   7.18000  1.680378E-08
   7.20000  1.661896E-08
   7.22000  1.643117E-08
   7.24000  1.625163E-08
   7.26000  1.607259E-08
   7.28000  1.589396E-08
   7.30000  1.572288E-08
   7.32000  1.555186E-08
   7.34000  1.538083E-08
   7.36000  1.521670E-08
   7.38000  1.505919E-08
   7.40000  1.490114E-08
   7.42000  1.474249E-08
   7.44000  1.458318E-08
   7.46000  1.442980E-08
   7.48000  1.426841E-08
   7.50000  1.412620E-08
   7.52000  1.396926E-08
   7.54000  1.383094E-08
   7.56000  1.368419E-08
   7.58000  1.353601E-08
   7.60000  1.339254E-08
   7.62000  1.325356E-08
   7.64000  1.311885E-08
   7.66000  1.298224E-08
   7.68000  1.284964E-08
   7.70000  1.272083E-08
   7.72000  1.258321E-08
   7.74000  1.246156E-08
   7.76000  1.233092E-08
   7.78000  1.221010E-08
   7.80000  1.208582E-08
   7.82000  1.196449E-08
   7.84000  1.184051E-08
   7.86000  1.172467E-08
   7.88000  1.160599E-08
   7.90000  1.148345E-08
   7.92000  1.137483E-08
   7.94000  1.126311E-08
   7.96000  1.114723E-08
   7.98000  1.103843E-08
   8.00000  1.092639E-08
   8.02000  1.081496E-08
   8.04000  1.071735E-08
   8.06000  1.061387E-08
   8.08000  1.049720E-08
   8.10000  1.039639E-08
   8.12000  1.029792E-08
   8.14000  1.019333E-08
   8.16000  1.010154E-08
   8.18000  1.000339E-08
   8.20000  9.907263E-09
   8.22000  9.811822E-09
   8.24000  9.714375E-09
   8.26000  9.624475E-09
   8.28000  9.532295E-09
   8.30000  9.437377E-09
   8.32000  9.350015E-09
   8.34000  9.264074E-09
   8.36000  9.171189E-09
   8.38000  9.089435E-09
   8.40000  9.000589E-09
   8.42000  8.917071E-09
   8.44000  8.835921E-09
   8.46000  8.746301E-09
   8.48000  8.672318E-09
   8.50000  8.589783E-09
   8.52000  8.509176E-09
   8.54000  8.433238E-09
   8.56000  8.349780E-09
   8.58000  8.276133E-09
   8.60000  8.202422E-09
   8.62000  8.125452E-09
   8.64000  8.048259E-09
   8.66000  7.976667E-09
   8.68000  7.904580E-09
   8.70000  7.832773E-09
   8.72000  7.763300E-09
   8.74000  7.689471E-09
   8.76000  7.615824E-09
   8.78000  7.546245E-09
   8.80000  7.480155E-09
   8.82000  7.417797E-09
   8.84000  7.350374E-09
   8.86000  7.283123E-09
   8.88000  7.222377E-09
   8.90000  7.153411E-09
   8.92000  7.087515E-09
   8.94000  7.024710E-09
   8.96000  6.967963E-09
   8.98000  6.902865E-09
   9.00000  6.848405E-09
   9.02000  6.780837E-09
   9.04000  6.726806E-09
   9.06000  6.664326E-09
   9.08000  6.607373E-09
   9.10000  6.552619E-09
   9.12000  6.492554E-09
   9.14000  6.434556E-09
   9.16000  6.381690E-09
   9.18000  6.330622E-09
   9.20000  6.274167E-09
   9.22000  6.221005E-09
   9.24000  6.162119E-09
   9.26000  6.115222E-09
   9.28000  6.062451E-09
   9.30000  6.007058E-09
   9.32000  5.960035E-09
   9.34000  5.910262E-09
   9.36000  5.857223E-09
   9.38000  5.810033E-09
   9.40000  5.762105E-09
   9.42000  5.708700E-09
   9.44000  5.665549E-09
   9.46000  5.619442E-09
   9.48000  5.567166E-09
   9.50000  5.525420E-09
   9.52000  5.479928E-09
   9.54000  5.431417E-09
   9.56000  5.385735E-09
   9.58000  5.341076E-09
   9.60000  5.301479E-09
   9.62000  5.256284E-09
   9.64000  5.213559E-09
   9.66000  5.167662E-09
   9.68000  5.126445E-09
   9.70000  5.085956E-09
   9.72000  5.043626E-09
   9.74000  5.001966E-09
   9.76000  4.963904E-09
   9.78000  4.923809E-09
   9.80000  4.884247E-09
   9.82000  4.844800E-09
   9.84000  4.805803E-09
   9.86000  4.768395E-09
   9.88000  4.729739E-09
   9.90000  4.688756E-09
   9.92000  4.654010E-09
   9.94000  4.616802E-09
   9.96000  4.578216E-09
   9.98000  4.540820E-09
   10.0000  4.505672E-09
