Ni Rho=8.902, Sig=0.nm, P=1., E=4000.eV
 Angle (deg), Reflectivity
   0.000000  1.00000
   2.000000E-02  0.996940
   4.000000E-02  0.993884
   6.000000E-02  0.990827
   8.000000E-02  0.987764
   0.100000  0.984690
   0.120000  0.981599
   0.140000  0.978486
   0.160000  0.975346
   0.180000  0.972171
   0.200000  0.968957
   0.220000  0.965696
   0.240000  0.962381
   0.260000  0.959004
   0.280000  0.955557
   0.300000  0.952031
   0.320000  0.948416
   0.340000  0.944700
   0.360000  0.940870
   0.380000  0.936913
   0.400000  0.932813
   0.420000  0.928550
   0.440000  0.924105
   0.460000  0.919452
   0.480000  0.914562
   0.500000  0.909402
   0.520000  0.903931
   0.540000  0.898099
   0.560000  0.891848
   0.580000  0.885102
   0.600000  0.877768
   0.620000  0.869726
   0.640000  0.860820
   0.660000  0.850842
   0.680000  0.839506
   0.700000  0.826404
   0.720000  0.810939
   0.740000  0.792186
   0.760000  0.768626
   0.780000  0.737576
   0.800000  0.693865
   0.820000  0.626979
   0.840000  0.521264
   0.860000  0.393652
   0.880000  0.294708
   0.900000  0.228375
   0.920000  0.182718
   0.940000  0.149808
   0.960000  0.125151
   0.980000  0.106110
   1.00000  9.105099E-02
   1.02000  7.890933E-02
   1.04000  6.896420E-02
   1.06000  6.070990E-02
   1.08000  5.378140E-02
   1.10000  4.790900E-02
   1.12000  4.288943E-02
   1.14000  3.856663E-02
   1.16000  3.481900E-02
   1.18000  3.155059E-02
   1.20000  2.868473E-02
   1.22000  2.615947E-02
   1.24000  2.392439E-02
   1.26000  2.193799E-02
   1.28000  2.016590E-02
   1.30000  1.857946E-02
   1.32000  1.715459E-02
   1.34000  1.587091E-02
   1.36000  1.471118E-02
   1.38000  1.366062E-02
   1.40000  1.270659E-02
   1.42000  1.183816E-02
   1.44000  1.104590E-02
   1.46000  1.032160E-02
   1.48000  9.658115E-03
   1.50000  9.049182E-03
   1.52000  8.489307E-03
   1.54000  7.973652E-03
   1.56000  7.497953E-03
   1.58000  7.058427E-03
   1.60000  6.651713E-03
   1.62000  6.274821E-03
   1.64000  5.925093E-03
   1.66000  5.600131E-03
   1.68000  5.297811E-03
   1.70000  5.016201E-03
   1.72000  4.753586E-03
   1.74000  4.508401E-03
   1.76000  4.279244E-03
   1.78000  4.064835E-03
   1.80000  3.864028E-03
   1.82000  3.675777E-03
   1.84000  3.499126E-03
   1.86000  3.333206E-03
   1.88000  3.177237E-03
   1.90000  3.030485E-03
   1.92000  2.892290E-03
   1.94000  2.762049E-03
   1.96000  2.639215E-03
   1.98000  2.523270E-03
   2.00000  2.413752E-03
   2.02000  2.310223E-03
   2.04000  2.212293E-03
   2.06000  2.119598E-03
   2.08000  2.031790E-03
   2.10000  1.948565E-03
   2.12000  1.869638E-03
   2.14000  1.794729E-03
   2.16000  1.723601E-03
   2.18000  1.656016E-03
   2.20000  1.591771E-03
   2.22000  1.530654E-03
   2.24000  1.472492E-03
   2.26000  1.417108E-03
   2.28000  1.364342E-03
   2.30000  1.314047E-03
   2.32000  1.266083E-03
   2.34000  1.220317E-03
   2.36000  1.176627E-03
   2.38000  1.134905E-03
   2.40000  1.095039E-03
   2.42000  1.056932E-03
   2.44000  1.020489E-03
   2.46000  9.856238E-04
   2.48000  9.522525E-04
   2.50000  9.203007E-04
   2.52000  8.896946E-04
   2.54000  8.603654E-04
   2.56000  8.322484E-04
   2.58000  8.052837E-04
   2.60000  7.794147E-04
   2.62000  7.545913E-04
   2.64000  7.307571E-04
   2.66000  7.078645E-04
   2.68000  6.858738E-04
   2.70000  6.647379E-04
   2.72000  6.444189E-04
   2.74000  6.248789E-04
   2.76000  6.060809E-04
   2.78000  5.879919E-04
   2.80000  5.705784E-04
   2.82000  5.538128E-04
   2.84000  5.376651E-04
   2.86000  5.221043E-04
   2.88000  5.071093E-04
   2.90000  4.926540E-04
   2.92000  4.787142E-04
   2.94000  4.652685E-04
   2.96000  4.522965E-04
   2.98000  4.397766E-04
   3.00000  4.276912E-04
   3.02000  4.160212E-04
   3.04000  4.047507E-04
   3.06000  3.938607E-04
   3.08000  3.833389E-04
   3.10000  3.731698E-04
   3.12000  3.633364E-04
   3.14000  3.538288E-04
   3.16000  3.446326E-04
   3.18000  3.357347E-04
   3.20000  3.271256E-04
   3.22000  3.187913E-04
   3.24000  3.107239E-04
   3.26000  3.029118E-04
   3.28000  2.953453E-04
   3.30000  2.880150E-04
   3.32000  2.809128E-04
   3.34000  2.740297E-04
   3.36000  2.673575E-04
   3.38000  2.608892E-04
   3.40000  2.546153E-04
   3.42000  2.485312E-04
   3.44000  2.426291E-04
   3.46000  2.369013E-04
   3.48000  2.313437E-04
   3.50000  2.259491E-04
   3.52000  2.207119E-04
   3.54000  2.156264E-04
   3.56000  2.106864E-04
   3.58000  2.058892E-04
   3.60000  2.012289E-04
   3.62000  1.967003E-04
   3.64000  1.922977E-04
   3.66000  1.880201E-04
   3.68000  1.838608E-04
   3.70000  1.798175E-04
   3.72000  1.758848E-04
   3.74000  1.720588E-04
   3.76000  1.683377E-04
   3.78000  1.647173E-04
   3.80000  1.611934E-04
   3.82000  1.577651E-04
   3.84000  1.544273E-04
   3.86000  1.511783E-04
   3.88000  1.480140E-04
   3.90000  1.449337E-04
   3.92000  1.419314E-04
   3.94000  1.390086E-04
   3.96000  1.361614E-04
   3.98000  1.333857E-04
   4.00000  1.306823E-04
   4.02000  1.280465E-04
   4.04000  1.254775E-04
   4.06000  1.229714E-04
   4.08000  1.205299E-04
   4.10000  1.181486E-04
   4.12000  1.158258E-04
   4.14000  1.135601E-04
   4.16000  1.113496E-04
   4.18000  1.091934E-04
   4.20000  1.070890E-04
   4.22000  1.050359E-04
   4.24000  1.030315E-04
   4.26000  1.010750E-04
   4.28000  9.916443E-05
   4.30000  9.729996E-05
   4.32000  9.547875E-05
   4.34000  9.370014E-05
   4.36000  9.196305E-05
   4.38000  9.026681E-05
   4.40000  8.860911E-05
   4.42000  8.698938E-05
   4.44000  8.540693E-05
   4.46000  8.386074E-05
   4.48000  8.234892E-05
   4.50000  8.087173E-05
   4.52000  7.942754E-05
   4.54000  7.801494E-05
   4.56000  7.663425E-05
   4.58000  7.528425E-05
   4.60000  7.396365E-05
   4.62000  7.267259E-05
   4.64000  7.140967E-05
   4.66000  7.017321E-05
   4.68000  6.896417E-05
   4.70000  6.778125E-05
   4.72000  6.662375E-05
   4.74000  6.549083E-05
   4.76000  6.438203E-05
   4.78000  6.329699E-05
   4.80000  6.223438E-05
   4.82000  6.119364E-05
   4.84000  6.017558E-05
   4.86000  5.917851E-05
   4.88000  5.820196E-05
   4.90000  5.724544E-05
   4.92000  5.630876E-05
   4.94000  5.539076E-05
   4.96000  5.449187E-05
   4.98000  5.361137E-05
   5.00000  5.274839E-05
   5.02000  5.190313E-05
   5.04000  5.107432E-05
   5.06000  5.026236E-05
   5.08000  4.946663E-05
   5.10000  4.868637E-05
   5.12000  4.792139E-05
   5.14000  4.717191E-05
   5.16000  4.643673E-05
   5.18000  4.571614E-05
   5.20000  4.500957E-05
   5.22000  4.431613E-05
   5.24000  4.363681E-05
   5.26000  4.296999E-05
   5.28000  4.231590E-05
   5.30000  4.167445E-05
   5.32000  4.104514E-05
   5.34000  4.042752E-05
   5.36000  3.982183E-05
   5.38000  3.922711E-05
   5.40000  3.864396E-05
   5.42000  3.807143E-05
   5.44000  3.750930E-05
   5.46000  3.695779E-05
   5.48000  3.641666E-05
   5.50000  3.588474E-05
   5.52000  3.536321E-05
   5.54000  3.485091E-05
   5.56000  3.434794E-05
   5.58000  3.385379E-05
   5.60000  3.336871E-05
   5.62000  3.289249E-05
   5.64000  3.242435E-05
   5.66000  3.196512E-05
   5.68000  3.151359E-05
   5.70000  3.107018E-05
   5.72000  3.063428E-05
   5.74000  3.020641E-05
   5.76000  2.978598E-05
   5.78000  2.937297E-05
   5.80000  2.896668E-05
   5.82000  2.856775E-05
   5.84000  2.817577E-05
   5.86000  2.779045E-05
   5.88000  2.741165E-05
   5.90000  2.703913E-05
   5.92000  2.667309E-05
   5.94000  2.631339E-05
   5.96000  2.595979E-05
   5.98000  2.561167E-05
   6.00000  2.526986E-05
   6.02000  2.493378E-05
   6.04000  2.460303E-05
   6.06000  2.427779E-05
   6.08000  2.395800E-05
   6.10000  2.364335E-05
   6.12000  2.333426E-05
   6.14000  2.302990E-05
   6.16000  2.273055E-05
   6.18000  2.243591E-05
   6.20000  2.214642E-05
   6.22000  2.186144E-05
   6.24000  2.158108E-05
   6.26000  2.130504E-05
   6.28000  2.103357E-05
   6.30000  2.076644E-05
   6.32000  2.050355E-05
   6.34000  2.024482E-05
   6.36000  1.998999E-05
   6.38000  1.973946E-05
   6.40000  1.949255E-05
   6.42000  1.924972E-05
   6.44000  1.901053E-05
   6.46000  1.877547E-05
   6.48000  1.854356E-05
   6.50000  1.831564E-05
   6.52000  1.809074E-05
   6.54000  1.786967E-05
   6.56000  1.765177E-05
   6.58000  1.743729E-05
   6.60000  1.722601E-05
   6.62000  1.701812E-05
   6.64000  1.681319E-05
   6.66000  1.661153E-05
   6.68000  1.641256E-05
   6.70000  1.621688E-05
   6.72000  1.602404E-05
   6.74000  1.583411E-05
   6.76000  1.564691E-05
   6.78000  1.546251E-05
   6.80000  1.528074E-05
   6.82000  1.510190E-05
   6.84000  1.492547E-05
   6.86000  1.475164E-05
   6.88000  1.458047E-05
   6.90000  1.441156E-05
   6.92000  1.424533E-05
   6.94000  1.408127E-05
   6.96000  1.391981E-05
   6.98000  1.376044E-05
   7.00000  1.360368E-05
   7.02000  1.344880E-05
   7.04000  1.329633E-05
   7.06000  1.314612E-05
   7.08000  1.299780E-05
   7.10000  1.285175E-05
   7.12000  1.270752E-05
   7.14000  1.256559E-05
   7.16000  1.242541E-05
   7.18000  1.228745E-05
   7.20000  1.215126E-05
   7.22000  1.201682E-05
   7.24000  1.188439E-05
   7.26000  1.175373E-05
   7.28000  1.162482E-05
   7.30000  1.149782E-05
   7.32000  1.137249E-05
   7.34000  1.124881E-05
   7.36000  1.112693E-05
   7.38000  1.100683E-05
   7.40000  1.088829E-05
   7.42000  1.077127E-05
   7.44000  1.065575E-05
   7.46000  1.054188E-05
   7.48000  1.042927E-05
   7.50000  1.031862E-05
   7.52000  1.020900E-05
   7.54000  1.010128E-05
   7.56000  9.994706E-06
   7.58000  9.889452E-06
   7.60000  9.785660E-06
   7.62000  9.683303E-06
   7.64000  9.582353E-06
   7.66000  9.482624E-06
   7.68000  9.384254E-06
   7.70000  9.287220E-06
   7.72000  9.191162E-06
   7.74000  9.096729E-06
   7.76000  9.003230E-06
   7.78000  8.911152E-06
   7.80000  8.820122E-06
   7.82000  8.730295E-06
   7.84000  8.641498E-06
   7.86000  8.554012E-06
   7.88000  8.467519E-06
   7.90000  8.381979E-06
   7.92000  8.297852E-06
   7.94000  8.214664E-06
   7.96000  8.132373E-06
   7.98000  8.051267E-06
   8.00000  7.971050E-06
   8.02000  7.891815E-06
   8.04000  7.813896E-06
   8.06000  7.736759E-06
   8.08000  7.660183E-06
   8.10000  7.584945E-06
   8.12000  7.510660E-06
   8.14000  7.437093E-06
   8.16000  7.364736E-06
   8.18000  7.293066E-06
   8.20000  7.222288E-06
   8.22000  7.152359E-06
   8.24000  7.083197E-06
   8.26000  7.015040E-06
   8.28000  6.947620E-06
   8.30000  6.880904E-06
   8.32000  6.815167E-06
   8.34000  6.750225E-06
   8.36000  6.685848E-06
   8.38000  6.622506E-06
   8.40000  6.559703E-06
   8.42000  6.497759E-06
   8.44000  6.436589E-06
   8.46000  6.375884E-06
   8.48000  6.316292E-06
   8.50000  6.257143E-06
   8.52000  6.198717E-06
   8.54000  6.141073E-06
   8.56000  6.083877E-06
   8.58000  6.027583E-06
   8.60000  5.971923E-06
   8.62000  5.916794E-06
   8.64000  5.862275E-06
   8.66000  5.808510E-06
   8.68000  5.755331E-06
   8.70000  5.702746E-06
   8.72000  5.650803E-06
   8.74000  5.599319E-06
   8.76000  5.548402E-06
   8.78000  5.498152E-06
   8.80000  5.448545E-06
   8.82000  5.399582E-06
   8.84000  5.351016E-06
   8.86000  5.302982E-06
   8.88000  5.255643E-06
   8.90000  5.208597E-06
   8.92000  5.162137E-06
   8.94000  5.116262E-06
   8.96000  5.071041E-06
   8.98000  5.026084E-06
   9.00000  4.981890E-06
   9.02000  4.937818E-06
   9.04000  4.894576E-06
   9.06000  4.851569E-06
   9.08000  4.809163E-06
   9.10000  4.767267E-06
   9.12000  4.725669E-06
   9.14000  4.684565E-06
   9.16000  4.644030E-06
   9.18000  4.603969E-06
   9.20000  4.564181E-06
   9.22000  4.524897E-06
   9.24000  4.485869E-06
   9.26000  4.447566E-06
   9.28000  4.409505E-06
   9.30000  4.371766E-06
   9.32000  4.334642E-06
   9.34000  4.297825E-06
   9.36000  4.261301E-06
   9.38000  4.225305E-06
   9.40000  4.189661E-06
   9.42000  4.154231E-06
   9.44000  4.119439E-06
   9.46000  4.084920E-06
   9.48000  4.050587E-06
   9.50000  4.016882E-06
   9.52000  3.983420E-06
   9.54000  3.950212E-06
   9.56000  3.917414E-06
   9.58000  3.884972E-06
   9.60000  3.852992E-06
   9.62000  3.821181E-06
   9.64000  3.789753E-06
   9.66000  3.758553E-06
   9.68000  3.727788E-06
   9.70000  3.697347E-06
   9.72000  3.667159E-06
   9.74000  3.637285E-06
   9.76000  3.607802E-06
   9.78000  3.578556E-06
   9.80000  3.549610E-06
   9.82000  3.520952E-06
   9.84000  3.492584E-06
   9.86000  3.464536E-06
   9.88000  3.436727E-06
   9.90000  3.409126E-06
   9.92000  3.381958E-06
   9.94000  3.354988E-06
   9.96000  3.328241E-06
   9.98000  3.301783E-06
   10.0000  3.275639E-06
