Ni Rho=8.902, Sig=0.nm, P=1., E=11000.eV
 Angle (deg), Reflectivity
   0.000000  1.00000
   2.000000E-02  0.988426
   4.000000E-02  0.976842
   6.000000E-02  0.965098
   8.000000E-02  0.953033
   0.100000  0.940463
   0.120000  0.927161
   0.140000  0.912836
   0.160000  0.897093
   0.180000  0.879362
   0.200000  0.858768
   0.220000  0.833866
   0.240000  0.802016
   0.260000  0.757679
   0.280000  0.686542
   0.300000  0.540772
   0.320000  0.294162
   0.340000  0.160896
   0.360000  0.100761
   0.380000  6.850709E-02
   0.400000  4.912900E-02
   0.420000  3.659069E-02
   0.440000  2.804227E-02
   0.460000  2.198111E-02
   0.480000  1.754965E-02
   0.500000  1.422835E-02
   0.520000  1.168740E-02
   0.540000  9.709309E-03
   0.560000  8.146212E-03
   0.580000  6.894866E-03
   0.600000  5.881528E-03
   0.620000  5.052524E-03
   0.640000  4.368095E-03
   0.660000  3.798351E-03
   0.680000  3.320503E-03
   0.700000  2.916986E-03
   0.720000  2.574086E-03
   0.740000  2.281013E-03
   0.760000  2.029179E-03
   0.780000  1.811713E-03
   0.800000  1.623048E-03
   0.820000  1.458659E-03
   0.840000  1.314848E-03
   0.860000  1.188559E-03
   0.880000  1.077262E-03
   0.900000  9.788441E-04
   0.920000  8.915364E-04
   0.940000  8.138547E-04
   0.960000  7.445406E-04
   0.980000  6.825217E-04
   1.00000  6.268896E-04
   1.02000  5.768638E-04
   1.04000  5.317702E-04
   1.06000  4.910381E-04
   1.08000  4.541639E-04
   1.10000  4.207120E-04
   1.12000  3.903082E-04
   1.14000  3.626223E-04
   1.16000  3.373640E-04
   1.18000  3.142826E-04
   1.20000  2.931554E-04
   1.22000  2.737841E-04
   1.24000  2.559971E-04
   1.26000  2.396407E-04
   1.28000  2.245764E-04
   1.30000  2.106839E-04
   1.32000  1.978568E-04
   1.34000  1.859943E-04
   1.36000  1.750130E-04
   1.38000  1.648345E-04
   1.40000  1.553890E-04
   1.42000  1.466131E-04
   1.44000  1.384511E-04
   1.46000  1.308518E-04
   1.48000  1.237699E-04
   1.50000  1.171623E-04
   1.52000  1.109913E-04
   1.54000  1.052227E-04
   1.56000  9.982558E-05
   1.58000  9.477168E-05
   1.60000  9.003479E-05
   1.62000  8.559111E-05
   1.64000  8.141977E-05
   1.66000  7.749968E-05
   1.68000  7.381417E-05
   1.70000  7.034517E-05
   1.72000  6.707879E-05
   1.74000  6.400041E-05
   1.76000  6.109718E-05
   1.78000  5.835671E-05
   1.80000  5.576878E-05
   1.82000  5.332346E-05
   1.84000  5.101117E-05
   1.86000  4.882288E-05
   1.88000  4.675179E-05
   1.90000  4.478930E-05
   1.92000  4.292858E-05
   1.94000  4.116368E-05
   1.96000  3.948938E-05
   1.98000  3.789913E-05
   2.00000  3.638884E-05
   2.02000  3.495244E-05
   2.04000  3.358683E-05
   2.06000  3.228779E-05
   2.08000  3.105036E-05
   2.10000  2.987208E-05
   2.12000  2.874986E-05
   2.14000  2.767917E-05
   2.16000  2.665848E-05
   2.18000  2.568408E-05
   2.20000  2.475447E-05
   2.22000  2.386585E-05
   2.24000  2.301740E-05
   2.26000  2.220626E-05
   2.28000  2.143051E-05
   2.30000  2.068866E-05
   2.32000  1.997876E-05
   2.34000  1.929892E-05
   2.36000  1.864760E-05
   2.38000  1.802397E-05
   2.40000  1.742602E-05
   2.42000  1.685285E-05
   2.44000  1.630294E-05
   2.46000  1.577534E-05
   2.48000  1.526882E-05
   2.50000  1.478269E-05
   2.52000  1.431586E-05
   2.54000  1.386730E-05
   2.56000  1.343614E-05
   2.58000  1.302157E-05
   2.60000  1.262291E-05
   2.62000  1.223983E-05
   2.64000  1.187092E-05
   2.66000  1.151555E-05
   2.68000  1.117374E-05
   2.70000  1.084435E-05
   2.72000  1.052708E-05
   2.74000  1.022140E-05
   2.76000  9.926702E-06
   2.78000  9.642592E-06
   2.80000  9.368454E-06
   2.82000  9.104235E-06
   2.84000  8.849359E-06
   2.86000  8.602991E-06
   2.88000  8.365341E-06
   2.90000  8.135907E-06
   2.92000  7.914188E-06
   2.94000  7.700019E-06
   2.96000  7.493163E-06
   2.98000  7.293097E-06
   3.00000  7.099731E-06
   3.02000  6.912680E-06
   3.04000  6.731871E-06
   3.06000  6.556696E-06
   3.08000  6.387389E-06
   3.10000  6.223610E-06
   3.12000  6.064806E-06
   3.14000  5.911212E-06
   3.16000  5.762458E-06
   3.18000  5.618268E-06
   3.20000  5.478710E-06
   3.22000  5.343280E-06
   3.24000  5.212163E-06
   3.26000  5.085026E-06
   3.28000  4.961718E-06
   3.30000  4.842097E-06
   3.32000  4.726103E-06
   3.34000  4.613587E-06
   3.36000  4.504372E-06
   3.38000  4.398456E-06
   3.40000  4.295459E-06
   3.42000  4.195602E-06
   3.44000  4.098642E-06
   3.46000  4.004346E-06
   3.48000  3.912874E-06
   3.50000  3.823999E-06
   3.52000  3.737628E-06
   3.54000  3.653673E-06
   3.56000  3.571936E-06
   3.58000  3.492621E-06
   3.60000  3.415531E-06
   3.62000  3.340534E-06
   3.64000  3.267400E-06
   3.66000  3.196483E-06
   3.68000  3.127398E-06
   3.70000  3.060283E-06
   3.72000  2.994875E-06
   3.74000  2.931113E-06
   3.76000  2.869140E-06
   3.78000  2.808789E-06
   3.80000  2.749925E-06
   3.82000  2.692771E-06
   3.84000  2.636993E-06
   3.86000  2.582722E-06
   3.88000  2.529746E-06
   3.90000  2.478263E-06
   3.92000  2.427818E-06
   3.94000  2.378868E-06
   3.96000  2.331198E-06
   3.98000  2.284531E-06
   4.00000  2.239227E-06
   4.02000  2.194926E-06
   4.04000  2.151752E-06
   4.06000  2.109449E-06
   4.08000  2.068424E-06
   4.10000  2.028356E-06
   4.12000  1.989197E-06
   4.14000  1.951000E-06
   4.16000  1.913673E-06
   4.18000  1.877311E-06
   4.20000  1.841745E-06
   4.22000  1.807105E-06
   4.24000  1.773209E-06
   4.26000  1.740111E-06
   4.28000  1.707711E-06
   4.30000  1.676191E-06
   4.32000  1.645323E-06
   4.34000  1.615159E-06
   4.36000  1.585702E-06
   4.38000  1.556987E-06
   4.40000  1.528842E-06
   4.42000  1.501321E-06
   4.44000  1.474452E-06
   4.46000  1.448216E-06
   4.48000  1.422481E-06
   4.50000  1.397388E-06
   4.52000  1.372830E-06
   4.54000  1.348725E-06
   4.56000  1.325211E-06
   4.58000  1.302227E-06
   4.60000  1.279696E-06
   4.62000  1.257728E-06
   4.64000  1.236223E-06
   4.66000  1.215049E-06
   4.68000  1.194414E-06
   4.70000  1.174224E-06
   4.72000  1.154466E-06
   4.74000  1.135107E-06
   4.76000  1.116155E-06
   4.78000  1.097636E-06
   4.80000  1.079444E-06
   4.82000  1.061571E-06
   4.84000  1.044187E-06
   4.86000  1.027132E-06
   4.88000  1.010411E-06
   4.90000  9.940109E-07
   4.92000  9.779666E-07
   4.94000  9.621837E-07
   4.96000  9.467689E-07
   4.98000  9.316815E-07
   5.00000  9.168601E-07
   5.02000  9.023776E-07
   5.04000  8.881162E-07
   5.06000  8.741767E-07
   5.08000  8.605223E-07
   5.10000  8.470953E-07
   5.12000  8.339163E-07
   5.14000  8.210529E-07
   5.16000  8.083924E-07
   5.18000  7.960095E-07
   5.20000  7.838677E-07
   5.22000  7.718888E-07
   5.24000  7.602373E-07
   5.26000  7.487366E-07
   5.28000  7.374528E-07
   5.30000  7.264045E-07
   5.32000  7.155605E-07
   5.34000  7.048939E-07
   5.36000  6.944658E-07
   5.38000  6.841817E-07
   5.40000  6.741467E-07
   5.42000  6.642675E-07
   5.44000  6.545399E-07
   5.46000  6.450226E-07
   5.48000  6.357094E-07
   5.50000  6.264721E-07
   5.52000  6.174909E-07
   5.54000  6.086383E-07
   5.56000  5.999496E-07
   5.58000  5.913818E-07
   5.60000  5.829901E-07
   5.62000  5.747694E-07
   5.64000  5.666378E-07
   5.66000  5.587256E-07
   5.68000  5.508950E-07
   5.70000  5.432191E-07
   5.72000  5.356391E-07
   5.74000  5.282405E-07
   5.76000  5.209646E-07
   5.78000  5.138278E-07
   5.80000  5.067542E-07
   5.82000  4.998457E-07
   5.84000  4.930658E-07
   5.86000  4.863917E-07
   5.88000  4.798204E-07
   5.90000  4.733381E-07
   5.92000  4.669834E-07
   5.94000  4.607523E-07
   5.96000  4.546312E-07
   5.98000  4.485504E-07
   6.00000  4.426318E-07
   6.02000  4.368145E-07
   6.04000  4.310587E-07
   6.06000  4.253996E-07
   6.08000  4.198432E-07
   6.10000  4.143600E-07
   6.12000  4.090184E-07
   6.14000  4.037188E-07
   6.16000  3.985112E-07
   6.18000  3.933678E-07
   6.20000  3.883545E-07
   6.22000  3.834005E-07
   6.24000  3.785285E-07
   6.26000  3.737123E-07
   6.28000  3.689916E-07
   6.30000  3.643462E-07
   6.32000  3.597740E-07
   6.34000  3.552729E-07
   6.36000  3.508183E-07
   6.38000  3.464705E-07
   6.40000  3.421487E-07
   6.42000  3.379245E-07
   6.44000  3.337449E-07
   6.46000  3.296842E-07
   6.48000  3.256221E-07
   6.50000  3.216743E-07
   6.52000  3.177231E-07
   6.54000  3.138818E-07
   6.56000  3.100714E-07
   6.58000  3.063304E-07
   6.60000  3.026373E-07
   6.62000  2.990259E-07
   6.64000  2.954431E-07
   6.66000  2.919384E-07
   6.68000  2.884411E-07
   6.70000  2.850371E-07
   6.72000  2.816722E-07
   6.74000  2.783628E-07
   6.76000  2.750899E-07
   6.78000  2.718697E-07
   6.80000  2.686836E-07
   6.82000  2.655798E-07
   6.84000  2.624921E-07
   6.86000  2.594514E-07
   6.88000  2.564715E-07
   6.90000  2.535047E-07
   6.92000  2.506109E-07
   6.94000  2.477294E-07
   6.96000  2.449192E-07
   6.98000  2.421180E-07
   7.00000  2.394004E-07
   7.02000  2.366747E-07
   7.04000  2.340146E-07
   7.06000  2.314039E-07
   7.08000  2.287978E-07
   7.10000  2.262531E-07
   7.12000  2.237115E-07
   7.14000  2.212431E-07
   7.16000  2.187760E-07
   7.18000  2.163793E-07
   7.20000  2.139961E-07
   7.22000  2.116260E-07
   7.24000  2.093088E-07
   7.26000  2.070163E-07
   7.28000  2.047478E-07
   7.30000  2.025286E-07
   7.32000  2.003314E-07
   7.34000  1.981557E-07
   7.36000  1.960258E-07
   7.38000  1.939404E-07
   7.40000  1.918735E-07
   7.42000  1.898246E-07
   7.44000  1.877932E-07
   7.46000  1.858025E-07
   7.48000  1.838023E-07
   7.50000  1.818896E-07
   7.52000  1.799428E-07
   7.54000  1.780808E-07
   7.56000  1.762068E-07
   7.58000  1.743453E-07
   7.60000  1.725181E-07
   7.62000  1.707241E-07
   7.64000  1.689623E-07
   7.66000  1.672103E-07
   7.68000  1.654890E-07
   7.70000  1.637974E-07
   7.72000  1.620901E-07
   7.74000  1.604556E-07
   7.76000  1.588043E-07
   7.78000  1.572033E-07
   7.80000  1.556048E-07
   7.82000  1.540315E-07
   7.84000  1.524632E-07
   7.86000  1.509383E-07
   7.88000  1.494172E-07
   7.90000  1.478961E-07
   7.92000  1.464385E-07
   7.94000  1.449831E-07
   7.96000  1.435260E-07
   7.98000  1.421073E-07
   8.00000  1.406898E-07
   8.02000  1.392871E-07
   8.04000  1.379462E-07
   8.06000  1.365966E-07
   8.08000  1.352118E-07
   8.10000  1.338957E-07
   8.12000  1.325997E-07
   8.14000  1.312933E-07
   8.16000  1.300440E-07
   8.18000  1.287832E-07
   8.20000  1.275406E-07
   8.22000  1.263114E-07
   8.24000  1.250858E-07
   8.26000  1.238976E-07
   8.28000  1.227118E-07
   8.30000  1.215264E-07
   8.32000  1.203782E-07
   8.34000  1.192449E-07
   8.36000  1.180968E-07
   8.38000  1.169980E-07
   8.40000  1.158835E-07
   8.42000  1.147974E-07
   8.44000  1.137292E-07
   8.46000  1.126397E-07
   8.48000  1.116152E-07
   8.50000  1.105690E-07
   8.52000  1.095384E-07
   8.54000  1.085332E-07
   8.56000  1.075097E-07
   8.58000  1.065296E-07
   8.60000  1.055576E-07
   8.62000  1.045820E-07
   8.64000  1.036138E-07
   8.66000  1.026735E-07
   8.68000  1.017394E-07
   8.70000  1.008139E-07
   8.72000  9.990440E-08
   8.74000  9.898688E-08
   8.76000  9.807739E-08
   8.78000  9.718980E-08
   8.80000  9.632188E-08
   8.82000  9.547444E-08
   8.84000  9.461591E-08
   8.86000  9.376493E-08
   8.88000  9.294403E-08
   8.90000  9.210051E-08
   8.92000  9.127459E-08
   8.94000  9.046632E-08
   8.96000  8.968617E-08
   8.98000  8.888257E-08
   9.00000  8.812327E-08
   9.02000  8.732337E-08
   9.04000  8.657799E-08
   9.06000  8.580848E-08
   9.08000  8.506469E-08
   9.10000  8.433469E-08
   9.12000  8.359149E-08
   9.14000  8.286146E-08
   9.16000  8.215544E-08
   9.18000  8.146145E-08
   9.20000  8.075371E-08
   9.22000  8.006321E-08
   9.24000  7.935764E-08
   9.26000  7.870023E-08
   9.28000  7.802709E-08
   9.30000  7.734973E-08
   9.32000  7.670743E-08
   9.34000  7.606032E-08
   9.36000  7.540655E-08
   9.38000  7.477858E-08
   9.40000  7.415285E-08
   9.42000  7.351232E-08
   9.44000  7.291320E-08
   9.46000  7.230816E-08
   9.48000  7.168570E-08
   9.50000  7.110544E-08
   9.52000  7.051629E-08
   9.54000  6.992079E-08
   9.56000  6.933981E-08
   9.58000  6.876678E-08
   9.60000  6.821616E-08
   9.62000  6.764974E-08
   9.64000  6.709633E-08
   9.66000  6.653569E-08
   9.68000  6.599588E-08
   9.70000  6.546266E-08
   9.72000  6.492687E-08
   9.74000  6.439736E-08
   9.76000  6.388459E-08
   9.78000  6.336841E-08
   9.80000  6.285789E-08
   9.82000  6.235155E-08
   9.84000  6.185047E-08
   9.86000  6.135874E-08
   9.88000  6.086614E-08
   9.90000  6.036879E-08
   9.92000  5.989723E-08
   9.94000  5.942037E-08
   9.96000  5.894199E-08
   9.98000  5.847127E-08
   10.0000  5.801192E-08
