Ni Rho=8.902, Sig=0.nm, P=1., E=29000.eV
 Angle (deg), Reflectivity
   0.000000  1.00000
   2.000000E-02  0.994631
   4.000000E-02  0.988783
   6.000000E-02  0.981678
   8.000000E-02  0.971515
   0.100000  0.951119
   0.120000  0.458637
   0.140000  8.927073E-02
   0.160000  3.726294E-02
   0.180000  1.932933E-02
   0.200000  1.128307E-02
   0.220000  7.114984E-03
   0.240000  4.742899E-03
   0.260000  3.298470E-03
   0.280000  2.372373E-03
   0.300000  1.753819E-03
   0.320000  1.326638E-03
   0.340000  1.023268E-03
   0.360000  8.026580E-04
   0.380000  6.389118E-04
   0.400000  5.151835E-04
   0.420000  4.202107E-04
   0.440000  3.462865E-04
   0.460000  2.880193E-04
   0.480000  2.415721E-04
   0.500000  2.041676E-04
   0.520000  1.737648E-04
   0.540000  1.488391E-04
   0.560000  1.282444E-04
   0.580000  1.111052E-04
   0.600000  9.674538E-05
   0.620000  8.464021E-05
   0.640000  7.437624E-05
   0.660000  6.562677E-05
   0.680000  5.813011E-05
   0.700000  5.167700E-05
   0.720000  4.609685E-05
   0.740000  4.125195E-05
   0.760000  3.702829E-05
   0.780000  3.333340E-05
   0.800000  3.008883E-05
   0.820000  2.722993E-05
   0.840000  2.470351E-05
   0.860000  2.246395E-05
   0.880000  2.047320E-05
   0.900000  1.869840E-05
   0.920000  1.711179E-05
   0.940000  1.569043E-05
   0.960000  1.441403E-05
   0.980000  1.326476E-05
   1.00000  1.222807E-05
   1.02000  1.129089E-05
   1.04000  1.044148E-05
   1.06000  9.671007E-06
   1.08000  8.970403E-06
   1.10000  8.331944E-06
   1.12000  7.749488E-06
   1.14000  7.217162E-06
   1.16000  6.729619E-06
   1.18000  6.282701E-06
   1.20000  5.872396E-06
   1.22000  5.494923E-06
   1.24000  5.147398E-06
   1.26000  4.827048E-06
   1.28000  4.531109E-06
   1.30000  4.257486E-06
   1.32000  4.004495E-06
   1.34000  3.769728E-06
   1.36000  3.552055E-06
   1.38000  3.349906E-06
   1.40000  3.161958E-06
   1.42000  2.986935E-06
   1.44000  2.823901E-06
   1.46000  2.671830E-06
   1.48000  2.530000E-06
   1.50000  2.397395E-06
   1.52000  2.273335E-06
   1.54000  2.157160E-06
   1.56000  2.048323E-06
   1.58000  1.946309E-06
   1.60000  1.850568E-06
   1.62000  1.760625E-06
   1.64000  1.676162E-06
   1.66000  1.596608E-06
   1.68000  1.521815E-06
   1.70000  1.451250E-06
   1.72000  1.384806E-06
   1.74000  1.322123E-06
   1.76000  1.262949E-06
   1.78000  1.206977E-06
   1.80000  1.154091E-06
   1.82000  1.104115E-06
   1.84000  1.056828E-06
   1.86000  1.011997E-06
   1.88000  9.696284E-07
   1.90000  9.294044E-07
   1.92000  8.911860E-07
   1.94000  8.549029E-07
   1.96000  8.205341E-07
   1.98000  7.878120E-07
   2.00000  7.567814E-07
   2.02000  7.271483E-07
   2.04000  6.990160E-07
   2.06000  6.722836E-07
   2.08000  6.467121E-07
   2.10000  6.223863E-07
   2.12000  5.992768E-07
   2.14000  5.771161E-07
   2.16000  5.560428E-07
   2.18000  5.358630E-07
   2.20000  5.166723E-07
   2.22000  4.982210E-07
   2.24000  4.806687E-07
   2.26000  4.638609E-07
   2.28000  4.477699E-07
   2.30000  4.324054E-07
   2.32000  4.177040E-07
   2.34000  4.035942E-07
   2.36000  3.900451E-07
   2.38000  3.771167E-07
   2.40000  3.646882E-07
   2.42000  3.527864E-07
   2.44000  3.413459E-07
   2.46000  3.303672E-07
   2.48000  3.198080E-07
   2.50000  3.096947E-07
   2.52000  2.999871E-07
   2.54000  2.906517E-07
   2.56000  2.816669E-07
   2.58000  2.730180E-07
   2.60000  2.647013E-07
   2.62000  2.567570E-07
   2.64000  2.490698E-07
   2.66000  2.416281E-07
   2.68000  2.345113E-07
   2.70000  2.276269E-07
   2.72000  2.210014E-07
   2.74000  2.146214E-07
   2.76000  2.084641E-07
   2.78000  2.025295E-07
   2.80000  1.967849E-07
   2.82000  1.912759E-07
   2.84000  1.859700E-07
   2.86000  1.807942E-07
   2.88000  1.758249E-07
   2.90000  1.710329E-07
   2.92000  1.663873E-07
   2.94000  1.619036E-07
   2.96000  1.575859E-07
   2.98000  1.533934E-07
   3.00000  1.493478E-07
   3.02000  1.454257E-07
   3.04000  1.416482E-07
   3.06000  1.379565E-07
   3.08000  1.344131E-07
   3.10000  1.309960E-07
   3.12000  1.276507E-07
   3.14000  1.244361E-07
   3.16000  1.213224E-07
   3.18000  1.182919E-07
   3.20000  1.153765E-07
   3.22000  1.125237E-07
   3.24000  1.097798E-07
   3.26000  1.071157E-07
   3.28000  1.045278E-07
   3.30000  1.020127E-07
   3.32000  9.957836E-08
   3.34000  9.721938E-08
   3.36000  9.492486E-08
   3.38000  9.270974E-08
   3.40000  9.053270E-08
   3.42000  8.843922E-08
   3.44000  8.640715E-08
   3.46000  8.441511E-08
   3.48000  8.249810E-08
   3.50000  8.063459E-08
   3.52000  7.882222E-08
   3.54000  7.705874E-08
   3.56000  7.532557E-08
   3.58000  7.366198E-08
   3.60000  7.204880E-08
   3.62000  7.047593E-08
   3.64000  6.891845E-08
   3.66000  6.743637E-08
   3.68000  6.598184E-08
   3.70000  6.458232E-08
   3.72000  6.320726E-08
   3.74000  6.185466E-08
   3.76000  6.055259E-08
   3.78000  5.928315E-08
   3.80000  5.803323E-08
   3.82000  5.684141E-08
   3.84000  5.566486E-08
   3.86000  5.452862E-08
   3.88000  5.340723E-08
   3.90000  5.233486E-08
   3.92000  5.125047E-08
   3.94000  5.022558E-08
   3.96000  4.923353E-08
   3.98000  4.823854E-08
   4.00000  4.729769E-08
   4.02000  4.636276E-08
   4.04000  4.545594E-08
   4.06000  4.454392E-08
   4.08000  4.369000E-08
   4.10000  4.285103E-08
   4.12000  4.202368E-08
   4.14000  4.121912E-08
   4.16000  4.042742E-08
   4.18000  3.966558E-08
   4.20000  3.891206E-08
   4.22000  3.818911E-08
   4.24000  3.747300E-08
   4.26000  3.677440E-08
   4.28000  3.608152E-08
   4.30000  3.542358E-08
   4.32000  3.476987E-08
   4.34000  3.413072E-08
   4.36000  3.350870E-08
   4.38000  3.291135E-08
   4.40000  3.231589E-08
   4.42000  3.173236E-08
   4.44000  3.116709E-08
   4.46000  3.061925E-08
   4.48000  3.007147E-08
   4.50000  2.954647E-08
   4.52000  2.903037E-08
   4.54000  2.851317E-08
   4.56000  2.801668E-08
   4.58000  2.753384E-08
   4.60000  2.705471E-08
   4.62000  2.659742E-08
   4.64000  2.614861E-08
   4.66000  2.569075E-08
   4.68000  2.525535E-08
   4.70000  2.483041E-08
   4.72000  2.441545E-08
   4.74000  2.400663E-08
   4.76000  2.360691E-08
   4.78000  2.322098E-08
   4.80000  2.283474E-08
   4.82000  2.244808E-08
   4.84000  2.208714E-08
   4.86000  2.172970E-08
   4.88000  2.137754E-08
   4.90000  2.102968E-08
   4.92000  2.069239E-08
   4.94000  2.035283E-08
   4.96000  2.002760E-08
   4.98000  1.971167E-08
   5.00000  1.939700E-08
   5.02000  1.909514E-08
   5.04000  1.878974E-08
   5.06000  1.849640E-08
   5.08000  1.821054E-08
   5.10000  1.792455E-08
   5.12000  1.764218E-08
   5.14000  1.737411E-08
   5.16000  1.710461E-08
   5.18000  1.684527E-08
   5.20000  1.659149E-08
   5.22000  1.633255E-08
   5.24000  1.609306E-08
   5.26000  1.584795E-08
   5.28000  1.560746E-08
   5.30000  1.537492E-08
   5.32000  1.514640E-08
   5.34000  1.491849E-08
   5.36000  1.470073E-08
   5.38000  1.447988E-08
   5.40000  1.427175E-08
   5.42000  1.406329E-08
   5.44000  1.385437E-08
   5.46000  1.365406E-08
   5.48000  1.346197E-08
   5.50000  1.325981E-08
   5.52000  1.307438E-08
   5.54000  1.288750E-08
   5.56000  1.270473E-08
   5.58000  1.252026E-08
   5.60000  1.234253E-08
   5.62000  1.217123E-08
   5.64000  1.199476E-08
   5.66000  1.183256E-08
   5.68000  1.166485E-08
   5.70000  1.150270E-08
   5.72000  1.133788E-08
   5.74000  1.118321E-08
   5.76000  1.103045E-08
   5.78000  1.088233E-08
   5.80000  1.072810E-08
   5.82000  1.058295E-08
   5.84000  1.044187E-08
   5.86000  1.030181E-08
   5.88000  1.016263E-08
   5.90000  1.002262E-08
   5.92000  9.887669E-09
   5.94000  9.757478E-09
   5.96000  9.630323E-09
   5.98000  9.496300E-09
   6.00000  9.373443E-09
   6.02000  9.253143E-09
   6.04000  9.129780E-09
   6.06000  9.008779E-09
   6.08000  8.891218E-09
   6.10000  8.773008E-09
   6.12000  8.664403E-09
   6.14000  8.551035E-09
   6.16000  8.440431E-09
   6.18000  8.328728E-09
   6.20000  8.225759E-09
   6.22000  8.121394E-09
   6.24000  8.019128E-09
   6.26000  7.915314E-09
   6.28000  7.815945E-09
   6.30000  7.718262E-09
   6.32000  7.622122E-09
   6.34000  7.527380E-09
   6.36000  7.430636E-09
   6.38000  7.340856E-09
   6.40000  7.246378E-09
   6.42000  7.157850E-09
   6.44000  7.067666E-09
   6.46000  6.986823E-09
   6.48000  6.897914E-09
   6.50000  6.817973E-09
   6.52000  6.729953E-09
   6.54000  6.650549E-09
   6.56000  6.568354E-09
   6.58000  6.489110E-09
   6.60000  6.409816E-09
   6.62000  6.335545E-09
   6.64000  6.258656E-09
   6.66000  6.186504E-09
   6.68000  6.108884E-09
   6.70000  6.038459E-09
   6.72000  5.967405E-09
   6.74000  5.898274E-09
   6.76000  5.828364E-09
   6.78000  5.760171E-09
   6.80000  5.691065E-09
   6.82000  5.628195E-09
   6.84000  5.561991E-09
   6.86000  5.497087E-09
   6.88000  5.435569E-09
   6.90000  5.370570E-09
   6.92000  5.310951E-09
   6.94000  5.247920E-09
   6.96000  5.190172E-09
   6.98000  5.128724E-09
   7.00000  5.074544E-09
   7.02000  5.014314E-09
   7.04000  4.958886E-09
   7.06000  4.905992E-09
   7.08000  4.849145E-09
   7.10000  4.796731E-09
   7.12000  4.740304E-09
   7.14000  4.690178E-09
   7.16000  4.635943E-09
   7.18000  4.587737E-09
   7.20000  4.537333E-09
   7.22000  4.484737E-09
   7.24000  4.435828E-09
   7.26000  4.386567E-09
   7.28000  4.336914E-09
   7.30000  4.290610E-09
   7.32000  4.243756E-09
   7.34000  4.196318E-09
   7.36000  4.151923E-09
   7.38000  4.110423E-09
   7.40000  4.068096E-09
   7.42000  4.024916E-09
   7.44000  3.980863E-09
   7.46000  3.939383E-09
   7.48000  3.893203E-09
   7.50000  3.856540E-09
   7.52000  3.811686E-09
   7.54000  3.776067E-09
   7.56000  3.735563E-09
   7.58000  3.693839E-09
   7.60000  3.654106E-09
   7.62000  3.616259E-09
   7.64000  3.580194E-09
   7.66000  3.542691E-09
   7.68000  3.506839E-09
   7.70000  3.472545E-09
   7.72000  3.433215E-09
   7.74000  3.401813E-09
   7.76000  3.365302E-09
   7.78000  3.333518E-09
   7.80000  3.299523E-09
   7.82000  3.266677E-09
   7.84000  3.232058E-09
   7.86000  3.201314E-09
   7.88000  3.168711E-09
   7.90000  3.133716E-09
   7.92000  3.105632E-09
   7.94000  3.075574E-09
   7.96000  3.042983E-09
   7.98000  3.013745E-09
   8.00000  2.982469E-09
   8.02000  2.951176E-09
   8.04000  2.926769E-09
   8.06000  2.898968E-09
   8.08000  2.863957E-09
   8.10000  2.836908E-09
   8.12000  2.810771E-09
   8.14000  2.781124E-09
   8.16000  2.757862E-09
   8.18000  2.730978E-09
   8.20000  2.704855E-09
   8.22000  2.678799E-09
   8.24000  2.651406E-09
   8.26000  2.627676E-09
   8.28000  2.602473E-09
   8.30000  2.575566E-09
   8.32000  2.552335E-09
   8.34000  2.529580E-09
   8.36000  2.502932E-09
   8.38000  2.481843E-09
   8.40000  2.456790E-09
   8.42000  2.434270E-09
   8.44000  2.412738E-09
   8.46000  2.386536E-09
   8.48000  2.368262E-09
   8.50000  2.345281E-09
   8.52000  2.323072E-09
   8.54000  2.303072E-09
   8.56000  2.278913E-09
   8.58000  2.259657E-09
   8.60000  2.240144E-09
   8.62000  2.218710E-09
   8.64000  2.196941E-09
   8.66000  2.177888E-09
   8.68000  2.158365E-09
   8.70000  2.138781E-09
   8.72000  2.120214E-09
   8.74000  2.099167E-09
   8.76000  2.078017E-09
   8.78000  2.058796E-09
   8.80000  2.041205E-09
   8.82000  2.025373E-09
   8.84000  2.006707E-09
   8.86000  1.987944E-09
   8.88000  1.972397E-09
   8.90000  1.952374E-09
   8.92000  1.933777E-09
   8.94000  1.916618E-09
   8.96000  1.902452E-09
   8.98000  1.883751E-09
   9.00000  1.870440E-09
   9.02000  1.850111E-09
   9.04000  1.836693E-09
   9.06000  1.818696E-09
   9.08000  1.803427E-09
   9.10000  1.789149E-09
   9.12000  1.771939E-09
   9.14000  1.755656E-09
   9.16000  1.741903E-09
   9.18000  1.728938E-09
   9.20000  1.713011E-09
   9.22000  1.698658E-09
   9.24000  1.681169E-09
   9.26000  1.669804E-09
   9.28000  1.655227E-09
   9.30000  1.639142E-09
   9.32000  1.627293E-09
   9.34000  1.613872E-09
   9.36000  1.598610E-09
   9.38000  1.586274E-09
   9.40000  1.573421E-09
   9.42000  1.557578E-09
   9.44000  1.546965E-09
   9.46000  1.534684E-09
   9.48000  1.519053E-09
   9.50000  1.508805E-09
   9.52000  1.496477E-09
   9.54000  1.482452E-09
   9.56000  1.469789E-09
   9.58000  1.457544E-09
   9.60000  1.447829E-09
   9.62000  1.435076E-09
   9.64000  1.423500E-09
   9.66000  1.410158E-09
   9.68000  1.399151E-09
   9.70000  1.388417E-09
   9.72000  1.376615E-09
   9.74000  1.365057E-09
   9.76000  1.355276E-09
   9.78000  1.344329E-09
   9.80000  1.333560E-09
   9.82000  1.322750E-09
   9.84000  1.312077E-09
   9.86000  1.302137E-09
   9.88000  1.291448E-09
   9.90000  1.279446E-09
   9.92000  1.270610E-09
   9.94000  1.260395E-09
   9.96000  1.249367E-09
   9.98000  1.238870E-09
   10.0000  1.229458E-09
