Ni Rho=8.902, Sig=0.nm, P=1., E=8000.eV
 Angle (deg), Reflectivity
   0.000000  1.00000
   2.000000E-02  0.997904
   4.000000E-02  0.995797
   6.000000E-02  0.993662
   8.000000E-02  0.991484
   0.100000  0.989242
   0.120000  0.986915
   0.140000  0.984478
   0.160000  0.981899
   0.180000  0.979140
   0.200000  0.976151
   0.220000  0.972862
   0.240000  0.969182
   0.260000  0.964974
   0.280000  0.960032
   0.300000  0.954021
   0.320000  0.946348
   0.340000  0.935828
   0.360000  0.919592
   0.380000  0.887750
   0.400000  0.745248
   0.420000  0.311444
   0.440000  0.181976
   0.460000  0.121907
   0.480000  8.753376E-02
   0.500000  6.567852E-02
   0.520000  5.083964E-02
   0.540000  4.029303E-02
   0.560000  3.253691E-02
   0.580000  2.667880E-02
   0.600000  2.215772E-02
   0.620000  1.860552E-02
   0.640000  1.577195E-02
   0.660000  1.348198E-02
   0.680000  1.161015E-02
   0.700000  1.006472E-02
   0.720000  8.777319E-03
   0.740000  7.696262E-03
   0.760000  6.781884E-03
   0.780000  6.003398E-03
   0.800000  5.336599E-03
   0.820000  4.762299E-03
   0.840000  4.265152E-03
   0.860000  3.832757E-03
   0.880000  3.455030E-03
   0.900000  3.123705E-03
   0.920000  2.831966E-03
   0.940000  2.574169E-03
   0.960000  2.345597E-03
   0.980000  2.142289E-03
   1.00000  1.960915E-03
   1.02000  1.798649E-03
   1.04000  1.653082E-03
   1.06000  1.522174E-03
   1.08000  1.404158E-03
   1.10000  1.297516E-03
   1.12000  1.200946E-03
   1.14000  1.113312E-03
   1.16000  1.033623E-03
   1.18000  9.610255E-04
   1.20000  8.947657E-04
   1.22000  8.341807E-04
   1.24000  7.786942E-04
   1.26000  7.277949E-04
   1.28000  6.810274E-04
   1.30000  6.379932E-04
   1.32000  5.983406E-04
   1.34000  5.617458E-04
   1.36000  5.279328E-04
   1.38000  4.966486E-04
   1.40000  4.676674E-04
   1.42000  4.407860E-04
   1.44000  4.158242E-04
   1.46000  3.926182E-04
   1.48000  3.710224E-04
   1.50000  3.509014E-04
   1.52000  3.321353E-04
   1.54000  3.146154E-04
   1.56000  2.982435E-04
   1.58000  2.829303E-04
   1.60000  2.685938E-04
   1.62000  2.551594E-04
   1.64000  2.425606E-04
   1.66000  2.307335E-04
   1.68000  2.196238E-04
   1.70000  2.091774E-04
   1.72000  1.993492E-04
   1.74000  1.900947E-04
   1.76000  1.813739E-04
   1.78000  1.731492E-04
   1.80000  1.653882E-04
   1.82000  1.580598E-04
   1.84000  1.511351E-04
   1.86000  1.445866E-04
   1.88000  1.383920E-04
   1.90000  1.325266E-04
   1.92000  1.269694E-04
   1.94000  1.217016E-04
   1.96000  1.167064E-04
   1.98000  1.119652E-04
   2.00000  1.074642E-04
   2.02000  1.031868E-04
   2.04000  9.912167E-05
   2.06000  9.525622E-05
   2.08000  9.157684E-05
   2.10000  8.807459E-05
   2.12000  8.473980E-05
   2.14000  8.156060E-05
   2.16000  7.853051E-05
   2.18000  7.563960E-05
   2.20000  7.288197E-05
   2.22000  7.024797E-05
   2.24000  6.773330E-05
   2.26000  6.533028E-05
   2.28000  6.303310E-05
   2.30000  6.083675E-05
   2.32000  5.873566E-05
   2.34000  5.672446E-05
   2.36000  5.479852E-05
   2.38000  5.295456E-05
   2.40000  5.118738E-05
   2.42000  4.949374E-05
   2.44000  4.786954E-05
   2.46000  4.631164E-05
   2.48000  4.481659E-05
   2.50000  4.338187E-05
   2.52000  4.200438E-05
   2.54000  4.068123E-05
   2.56000  3.940979E-05
   2.58000  3.818767E-05
   2.60000  3.701272E-05
   2.62000  3.588343E-05
   2.64000  3.479653E-05
   2.66000  3.375011E-05
   2.68000  3.274341E-05
   2.70000  3.177373E-05
   2.72000  3.083987E-05
   2.74000  2.994024E-05
   2.76000  2.907318E-05
   2.78000  2.823740E-05
   2.80000  2.743128E-05
   2.82000  2.665419E-05
   2.84000  2.590462E-05
   2.86000  2.518066E-05
   2.88000  2.448220E-05
   2.90000  2.380794E-05
   2.92000  2.315660E-05
   2.94000  2.252750E-05
   2.96000  2.191984E-05
   2.98000  2.133238E-05
   3.00000  2.076461E-05
   3.02000  2.021555E-05
   3.04000  1.968474E-05
   3.06000  1.917086E-05
   3.08000  1.867402E-05
   3.10000  1.819336E-05
   3.12000  1.772767E-05
   3.14000  1.727711E-05
   3.16000  1.684080E-05
   3.18000  1.641805E-05
   3.20000  1.600877E-05
   3.22000  1.561186E-05
   3.24000  1.522746E-05
   3.26000  1.485480E-05
   3.28000  1.449345E-05
   3.30000  1.414298E-05
   3.32000  1.380313E-05
   3.34000  1.347348E-05
   3.36000  1.315358E-05
   3.38000  1.284328E-05
   3.40000  1.254179E-05
   3.42000  1.224934E-05
   3.44000  1.196540E-05
   3.46000  1.168944E-05
   3.48000  1.142162E-05
   3.50000  1.116143E-05
   3.52000  1.090862E-05
   3.54000  1.066291E-05
   3.56000  1.042387E-05
   3.58000  1.019176E-05
   3.60000  9.966141E-06
   3.62000  9.746699E-06
   3.64000  9.532955E-06
   3.66000  9.325434E-06
   3.68000  9.123395E-06
   3.70000  8.926999E-06
   3.72000  8.735721E-06
   3.74000  8.549387E-06
   3.76000  8.368172E-06
   3.78000  8.191728E-06
   3.80000  8.019758E-06
   3.82000  7.852582E-06
   3.84000  7.689571E-06
   3.86000  7.530894E-06
   3.88000  7.376131E-06
   3.90000  7.225572E-06
   3.92000  7.078384E-06
   3.94000  6.935302E-06
   3.96000  6.795912E-06
   3.98000  6.659691E-06
   4.00000  6.527215E-06
   4.02000  6.397824E-06
   4.04000  6.271690E-06
   4.06000  6.148334E-06
   4.08000  6.028418E-06
   4.10000  5.911352E-06
   4.12000  5.797021E-06
   4.14000  5.685481E-06
   4.16000  5.576539E-06
   4.18000  5.470329E-06
   4.20000  5.366529E-06
   4.22000  5.265333E-06
   4.24000  5.166400E-06
   4.26000  5.069793E-06
   4.28000  4.975315E-06
   4.30000  4.883250E-06
   4.32000  4.793184E-06
   4.34000  4.705184E-06
   4.36000  4.619225E-06
   4.38000  4.535350E-06
   4.40000  4.453240E-06
   4.42000  4.372966E-06
   4.44000  4.294557E-06
   4.46000  4.217957E-06
   4.48000  4.142922E-06
   4.50000  4.069675E-06
   4.52000  3.998013E-06
   4.54000  3.927779E-06
   4.56000  3.859193E-06
   4.58000  3.792135E-06
   4.60000  3.726451E-06
   4.62000  3.662320E-06
   4.64000  3.599553E-06
   4.66000  3.537909E-06
   4.68000  3.477730E-06
   4.70000  3.418841E-06
   4.72000  3.361209E-06
   4.74000  3.304759E-06
   4.76000  3.249499E-06
   4.78000  3.195455E-06
   4.80000  3.142437E-06
   4.82000  3.090417E-06
   4.84000  3.039677E-06
   4.86000  2.989933E-06
   4.88000  2.941181E-06
   4.90000  2.893388E-06
   4.92000  2.846606E-06
   4.94000  2.800661E-06
   4.96000  2.755728E-06
   4.98000  2.711728E-06
   5.00000  2.668546E-06
   5.02000  2.626299E-06
   5.04000  2.584776E-06
   5.06000  2.544143E-06
   5.08000  2.504327E-06
   5.10000  2.465222E-06
   5.12000  2.426857E-06
   5.14000  2.389339E-06
   5.16000  2.352468E-06
   5.18000  2.316366E-06
   5.20000  2.280962E-06
   5.22000  2.246117E-06
   5.24000  2.212106E-06
   5.26000  2.178621E-06
   5.28000  2.145767E-06
   5.30000  2.113572E-06
   5.32000  2.081976E-06
   5.34000  2.050927E-06
   5.36000  2.020525E-06
   5.38000  1.990602E-06
   5.40000  1.961334E-06
   5.42000  1.932555E-06
   5.44000  1.904253E-06
   5.46000  1.876524E-06
   5.48000  1.849354E-06
   5.50000  1.822517E-06
   5.52000  1.796317E-06
   5.54000  1.770533E-06
   5.56000  1.745221E-06
   5.58000  1.720302E-06
   5.60000  1.695867E-06
   5.62000  1.671904E-06
   5.64000  1.648269E-06
   5.66000  1.625180E-06
   5.68000  1.602399E-06
   5.70000  1.580047E-06
   5.72000  1.558020E-06
   5.74000  1.536461E-06
   5.76000  1.515266E-06
   5.78000  1.494460E-06
   5.80000  1.473910E-06
   5.82000  1.453787E-06
   5.84000  1.434027E-06
   5.86000  1.414586E-06
   5.88000  1.395457E-06
   5.90000  1.376614E-06
   5.92000  1.358120E-06
   5.94000  1.339965E-06
   5.96000  1.322125E-06
   5.98000  1.304476E-06
   6.00000  1.287225E-06
   6.02000  1.270265E-06
   6.04000  1.253527E-06
   6.06000  1.237067E-06
   6.08000  1.220895E-06
   6.10000  1.204956E-06
   6.12000  1.189367E-06
   6.14000  1.173954E-06
   6.16000  1.158802E-06
   6.18000  1.143860E-06
   6.20000  1.129240E-06
   6.22000  1.114818E-06
   6.24000  1.100631E-06
   6.26000  1.086633E-06
   6.28000  1.072890E-06
   6.30000  1.059366E-06
   6.32000  1.046055E-06
   6.34000  1.032951E-06
   6.36000  1.020013E-06
   6.38000  1.007340E-06
   6.40000  9.947926E-07
   6.42000  9.824925E-07
   6.44000  9.703474E-07
   6.46000  9.584828E-07
   6.48000  9.466916E-07
   6.50000  9.351702E-07
   6.52000  9.237158E-07
   6.54000  9.125213E-07
   6.56000  9.014497E-07
   6.58000  8.905659E-07
   6.60000  8.798317E-07
   6.62000  8.693038E-07
   6.64000  8.588904E-07
   6.66000  8.486745E-07
   6.68000  8.385344E-07
   6.70000  8.286158E-07
   6.72000  8.188246E-07
   6.74000  8.091884E-07
   6.76000  7.996730E-07
   6.78000  7.903056E-07
   6.80000  7.810529E-07
   6.82000  7.719966E-07
   6.84000  7.630225E-07
   6.86000  7.541826E-07
   6.88000  7.454992E-07
   6.90000  7.368901E-07
   6.92000  7.284567E-07
   6.94000  7.200946E-07
   6.96000  7.119035E-07
   6.98000  7.037762E-07
   7.00000  6.958395E-07
   7.02000  6.879355E-07
   7.04000  6.801895E-07
   7.06000  6.725734E-07
   7.08000  6.650094E-07
   7.10000  6.575940E-07
   7.12000  6.502268E-07
   7.14000  6.430269E-07
   7.16000  6.358708E-07
   7.18000  6.288759E-07
   7.20000  6.219441E-07
   7.22000  6.150740E-07
   7.24000  6.083333E-07
   7.26000  6.016729E-07
   7.28000  5.950912E-07
   7.30000  5.886306E-07
   7.32000  5.822440E-07
   7.34000  5.759297E-07
   7.36000  5.697290E-07
   7.38000  5.636390E-07
   7.40000  5.576146E-07
   7.42000  5.516543E-07
   7.44000  5.457568E-07
   7.46000  5.399613E-07
   7.48000  5.341814E-07
   7.50000  5.285826E-07
   7.52000  5.229563E-07
   7.54000  5.175054E-07
   7.56000  5.120638E-07
   7.58000  5.066730E-07
   7.60000  5.013697E-07
   7.62000  4.961518E-07
   7.64000  4.910170E-07
   7.66000  4.859265E-07
   7.68000  4.809157E-07
   7.70000  4.759824E-07
   7.72000  4.710487E-07
   7.74000  4.662653E-07
   7.76000  4.614788E-07
   7.78000  4.568033E-07
   7.80000  4.521569E-07
   7.82000  4.475781E-07
   7.84000  4.430317E-07
   7.86000  4.385832E-07
   7.88000  4.341644E-07
   7.90000  4.297686E-07
   7.92000  4.255038E-07
   7.94000  4.212652E-07
   7.96000  4.170455E-07
   7.98000  4.129131E-07
   8.00000  4.088039E-07
   8.02000  4.047410E-07
   8.04000  4.008043E-07
   8.06000  3.968732E-07
   8.08000  3.929019E-07
   8.10000  3.890677E-07
   8.12000  3.852872E-07
   8.14000  3.815082E-07
   8.16000  3.778457E-07
   8.18000  3.741822E-07
   8.20000  3.705681E-07
   8.22000  3.669948E-07
   8.24000  3.634455E-07
   8.26000  3.599778E-07
   8.28000  3.565314E-07
   8.30000  3.531026E-07
   8.32000  3.497543E-07
   8.34000  3.464482E-07
   8.36000  3.431327E-07
   8.38000  3.399179E-07
   8.40000  3.366920E-07
   8.42000  3.335302E-07
   8.44000  3.304143E-07
   8.46000  3.272773E-07
   8.48000  3.242665E-07
   8.50000  3.212332E-07
   8.52000  3.182412E-07
   8.54000  3.153069E-07
   8.56000  3.123554E-07
   8.58000  3.094921E-07
   8.60000  3.066565E-07
   8.62000  3.038283E-07
   8.64000  3.010261E-07
   8.66000  2.982847E-07
   8.68000  2.955668E-07
   8.70000  2.928766E-07
   8.72000  2.902264E-07
   8.74000  2.875749E-07
   8.76000  2.849495E-07
   8.78000  2.823736E-07
   8.80000  2.798433E-07
   8.82000  2.773600E-07
   8.84000  2.748692E-07
   8.86000  2.724029E-07
   8.88000  2.699993E-07
   8.90000  2.675683E-07
   8.92000  2.651783E-07
   8.94000  2.628295E-07
   8.96000  2.605394E-07
   8.98000  2.582199E-07
   9.00000  2.559866E-07
   9.02000  2.536941E-07
   9.04000  2.515051E-07
   9.06000  2.492848E-07
   9.08000  2.471185E-07
   9.10000  2.449855E-07
   9.12000  2.428396E-07
   9.14000  2.407257E-07
   9.16000  2.386623E-07
   9.18000  2.366288E-07
   9.20000  2.345809E-07
   9.22000  2.325715E-07
   9.24000  2.305453E-07
   9.26000  2.286102E-07
   9.28000  2.266570E-07
   9.30000  2.247050E-07
   9.32000  2.228216E-07
   9.34000  2.209383E-07
   9.36000  2.190518E-07
   9.38000  2.172176E-07
   9.40000  2.153953E-07
   9.42000  2.135556E-07
   9.44000  2.117946E-07
   9.46000  2.100312E-07
   9.48000  2.082457E-07
   9.50000  2.065399E-07
   9.52000  2.048263E-07
   9.54000  2.031093E-07
   9.56000  2.014243E-07
   9.58000  1.997602E-07
   9.60000  1.981414E-07
   9.62000  1.965026E-07
   9.64000  1.948930E-07
   9.66000  1.932778E-07
   9.68000  1.917051E-07
   9.70000  1.901502E-07
   9.72000  1.885976E-07
   9.74000  1.870621E-07
   9.76000  1.855618E-07
   9.78000  1.840619E-07
   9.80000  1.825780E-07
   9.82000  1.811074E-07
   9.84000  1.796519E-07
   9.86000  1.782185E-07
   9.88000  1.767895E-07
   9.90000  1.753583E-07
   9.92000  1.739770E-07
   9.94000  1.725924E-07
   9.96000  1.712109E-07
   9.98000  1.698481E-07
   10.0000  1.685103E-07
