Ni Rho=8.902, Sig=0.nm, P=1., E=12000.eV
 Angle (deg), Reflectivity
   0.000000  1.00000
   2.000000E-02  0.989187
   4.000000E-02  0.978331
   6.000000E-02  0.967265
   8.000000E-02  0.955803
   0.100000  0.943725
   0.120000  0.930749
   0.140000  0.916491
   0.160000  0.900396
   0.180000  0.881598
   0.200000  0.858626
   0.220000  0.828681
   0.240000  0.785488
   0.260000  0.710645
   0.280000  0.524941
   0.300000  0.246321
   0.320000  0.133625
   0.340000  8.362057E-02
   0.360000  5.671559E-02
   0.380000  4.053449E-02
   0.400000  3.007472E-02
   0.420000  2.295830E-02
   0.440000  1.792621E-02
   0.460000  1.425829E-02
   0.480000  1.151798E-02
   0.500000  9.428255E-03
   0.520000  7.806661E-03
   0.540000  6.529282E-03
   0.560000  5.509784E-03
   0.580000  4.686650E-03
   0.600000  4.015172E-03
   0.620000  3.462328E-03
   0.640000  3.003340E-03
   0.660000  2.619374E-03
   0.680000  2.295926E-03
   0.700000  2.021722E-03
   0.720000  1.787891E-03
   0.740000  1.587406E-03
   0.760000  1.414639E-03
   0.780000  1.265063E-03
   0.800000  1.134988E-03
   0.820000  1.021405E-03
   0.840000  9.218434E-04
   0.860000  8.342528E-04
   0.880000  7.569306E-04
   0.900000  6.884495E-04
   0.920000  6.276114E-04
   0.940000  5.734089E-04
   0.960000  5.249850E-04
   0.980000  4.816072E-04
   1.00000  4.426547E-04
   1.02000  4.075922E-04
   1.04000  3.759563E-04
   1.06000  3.473554E-04
   1.08000  3.214418E-04
   1.10000  2.979145E-04
   1.12000  2.765155E-04
   1.14000  2.570158E-04
   1.16000  2.392140E-04
   1.18000  2.229365E-04
   1.20000  2.080285E-04
   1.22000  1.943517E-04
   1.24000  1.817869E-04
   1.26000  1.702270E-04
   1.28000  1.595751E-04
   1.30000  1.497472E-04
   1.32000  1.406694E-04
   1.34000  1.322705E-04
   1.36000  1.244926E-04
   1.38000  1.172806E-04
   1.40000  1.105856E-04
   1.42000  1.043631E-04
   1.44000  9.857396E-05
   1.46000  9.318218E-05
   1.48000  8.815619E-05
   1.50000  8.346537E-05
   1.52000  7.908332E-05
   1.54000  7.498584E-05
   1.56000  7.115127E-05
   1.58000  6.755973E-05
   1.60000  6.419267E-05
   1.62000  6.103332E-05
   1.64000  5.806702E-05
   1.66000  5.527871E-05
   1.68000  5.265682E-05
   1.70000  5.018839E-05
   1.72000  4.786377E-05
   1.74000  4.567256E-05
   1.76000  4.360565E-05
   1.78000  4.165424E-05
   1.80000  3.981116E-05
   1.82000  3.806941E-05
   1.84000  3.642219E-05
   1.86000  3.486302E-05
   1.88000  3.338725E-05
   1.90000  3.198863E-05
   1.92000  3.066231E-05
   1.94000  2.940411E-05
   1.96000  2.821044E-05
   1.98000  2.707649E-05
   2.00000  2.599951E-05
   2.02000  2.497499E-05
   2.04000  2.400092E-05
   2.06000  2.307428E-05
   2.08000  2.219140E-05
   2.10000  2.135068E-05
   2.12000  2.054995E-05
   2.14000  1.978582E-05
   2.16000  1.905737E-05
   2.18000  1.836184E-05
   2.20000  1.769829E-05
   2.22000  1.706385E-05
   2.24000  1.645812E-05
   2.26000  1.587895E-05
   2.28000  1.532501E-05
   2.30000  1.479526E-05
   2.32000  1.428829E-05
   2.34000  1.380273E-05
   2.36000  1.333748E-05
   2.38000  1.289203E-05
   2.40000  1.246488E-05
   2.42000  1.205540E-05
   2.44000  1.166251E-05
   2.46000  1.128553E-05
   2.48000  1.092358E-05
   2.50000  1.057620E-05
   2.52000  1.024260E-05
   2.54000  9.922034E-06
   2.56000  9.613875E-06
   2.58000  9.317556E-06
   2.60000  9.032596E-06
   2.62000  8.758804E-06
   2.64000  8.495096E-06
   2.66000  8.241018E-06
   2.68000  7.996669E-06
   2.70000  7.761158E-06
   2.72000  7.534315E-06
   2.74000  7.315748E-06
   2.76000  7.105024E-06
   2.78000  6.901865E-06
   2.80000  6.705810E-06
   2.82000  6.516872E-06
   2.84000  6.334617E-06
   2.86000  6.158391E-06
   2.88000  5.988421E-06
   2.90000  5.824327E-06
   2.92000  5.665731E-06
   2.94000  5.512535E-06
   2.96000  5.364579E-06
   2.98000  5.221458E-06
   3.00000  5.083134E-06
   3.02000  4.949314E-06
   3.04000  4.819970E-06
   3.06000  4.694622E-06
   3.08000  4.573493E-06
   3.10000  4.456328E-06
   3.12000  4.342687E-06
   3.14000  4.232792E-06
   3.16000  4.126357E-06
   3.18000  4.023173E-06
   3.20000  3.923320E-06
   3.22000  3.826394E-06
   3.24000  3.732571E-06
   3.26000  3.641590E-06
   3.28000  3.553344E-06
   3.30000  3.467730E-06
   3.32000  3.384714E-06
   3.34000  3.304189E-06
   3.36000  3.226019E-06
   3.38000  3.150220E-06
   3.40000  3.076484E-06
   3.42000  3.005013E-06
   3.44000  2.935615E-06
   3.46000  2.868106E-06
   3.48000  2.802634E-06
   3.50000  2.739018E-06
   3.52000  2.677192E-06
   3.54000  2.617093E-06
   3.56000  2.558564E-06
   3.58000  2.501787E-06
   3.60000  2.446605E-06
   3.62000  2.392918E-06
   3.64000  2.340538E-06
   3.66000  2.289775E-06
   3.68000  2.240312E-06
   3.70000  2.192272E-06
   3.72000  2.145443E-06
   3.74000  2.099777E-06
   3.76000  2.055406E-06
   3.78000  2.012194E-06
   3.80000  1.970035E-06
   3.82000  1.929121E-06
   3.84000  1.889179E-06
   3.86000  1.850324E-06
   3.88000  1.812382E-06
   3.90000  1.775528E-06
   3.92000  1.739381E-06
   3.94000  1.704335E-06
   3.96000  1.670210E-06
   3.98000  1.636777E-06
   4.00000  1.604347E-06
   4.02000  1.572619E-06
   4.04000  1.541703E-06
   4.06000  1.511385E-06
   4.08000  1.482015E-06
   4.10000  1.453324E-06
   4.12000  1.425276E-06
   4.14000  1.397920E-06
   4.16000  1.371181E-06
   4.18000  1.345142E-06
   4.20000  1.319665E-06
   4.22000  1.294862E-06
   4.24000  1.270583E-06
   4.26000  1.246875E-06
   4.28000  1.223658E-06
   4.30000  1.201088E-06
   4.32000  1.178975E-06
   4.34000  1.157366E-06
   4.36000  1.136265E-06
   4.38000  1.115705E-06
   4.40000  1.095542E-06
   4.42000  1.075825E-06
   4.44000  1.056580E-06
   4.46000  1.037793E-06
   4.48000  1.019352E-06
   4.50000  1.001382E-06
   4.52000  9.837916E-07
   4.54000  9.665147E-07
   4.56000  9.496698E-07
   4.58000  9.332074E-07
   4.60000  9.170623E-07
   4.62000  9.013317E-07
   4.64000  8.859309E-07
   4.66000  8.707508E-07
   4.68000  8.559675E-07
   4.70000  8.415044E-07
   4.72000  8.273522E-07
   4.74000  8.134822E-07
   4.76000  7.999054E-07
   4.78000  7.866431E-07
   4.80000  7.736074E-07
   4.82000  7.607923E-07
   4.84000  7.483438E-07
   4.86000  7.361277E-07
   4.88000  7.241488E-07
   4.90000  7.123970E-07
   4.92000  7.009033E-07
   4.94000  6.895886E-07
   4.96000  6.785446E-07
   4.98000  6.677375E-07
   5.00000  6.571163E-07
   5.02000  6.467440E-07
   5.04000  6.365212E-07
   5.06000  6.265347E-07
   5.08000  6.167538E-07
   5.10000  6.071307E-07
   5.12000  5.976835E-07
   5.14000  5.884705E-07
   5.16000  5.793967E-07
   5.18000  5.705263E-07
   5.20000  5.618292E-07
   5.22000  5.532397E-07
   5.24000  5.448978E-07
   5.26000  5.366547E-07
   5.28000  5.285671E-07
   5.30000  5.206513E-07
   5.32000  5.128816E-07
   5.34000  5.052356E-07
   5.36000  4.977658E-07
   5.38000  4.903928E-07
   5.40000  4.832061E-07
   5.42000  4.761272E-07
   5.44000  4.691530E-07
   5.46000  4.623338E-07
   5.48000  4.556651E-07
   5.50000  4.490384E-07
   5.52000  4.426070E-07
   5.54000  4.362635E-07
   5.56000  4.300380E-07
   5.58000  4.238947E-07
   5.60000  4.178807E-07
   5.62000  4.119923E-07
   5.64000  4.061601E-07
   5.66000  4.004954E-07
   5.68000  3.948815E-07
   5.70000  3.893807E-07
   5.72000  3.839439E-07
   5.74000  3.786436E-07
   5.76000  3.734305E-07
   5.78000  3.683188E-07
   5.80000  3.632447E-07
   5.82000  3.582946E-07
   5.84000  3.534382E-07
   5.86000  3.486563E-07
   5.88000  3.439466E-07
   5.90000  3.392979E-07
   5.92000  3.347431E-07
   5.94000  3.302791E-07
   5.96000  3.258946E-07
   5.98000  3.215310E-07
   6.00000  3.172917E-07
   6.02000  3.131254E-07
   6.04000  3.089986E-07
   6.06000  3.049414E-07
   6.08000  3.009592E-07
   6.10000  2.970270E-07
   6.12000  2.932034E-07
   6.14000  2.894038E-07
   6.16000  2.856710E-07
   6.18000  2.819816E-07
   6.20000  2.783918E-07
   6.22000  2.748417E-07
   6.24000  2.713507E-07
   6.26000  2.678968E-07
   6.28000  2.645139E-07
   6.30000  2.611851E-07
   6.32000  2.579087E-07
   6.34000  2.546831E-07
   6.36000  2.514878E-07
   6.38000  2.483739E-07
   6.40000  2.452732E-07
   6.42000  2.422464E-07
   6.44000  2.392489E-07
   6.46000  2.363438E-07
   6.48000  2.334292E-07
   6.50000  2.306034E-07
   6.52000  2.277667E-07
   6.54000  2.250155E-07
   6.56000  2.222828E-07
   6.58000  2.196013E-07
   6.60000  2.169530E-07
   6.62000  2.143668E-07
   6.64000  2.117977E-07
   6.66000  2.092877E-07
   6.68000  2.067772E-07
   6.70000  2.043391E-07
   6.72000  2.019273E-07
   6.74000  1.995562E-07
   6.76000  1.972096E-07
   6.78000  1.949015E-07
   6.80000  1.926160E-07
   6.82000  1.903942E-07
   6.84000  1.881800E-07
   6.86000  1.860000E-07
   6.88000  1.838657E-07
   6.90000  1.817368E-07
   6.92000  1.796643E-07
   6.94000  1.775967E-07
   6.96000  1.755842E-07
   6.98000  1.735741E-07
   7.00000  1.716296E-07
   7.02000  1.696732E-07
   7.04000  1.677673E-07
   7.06000  1.658985E-07
   7.08000  1.640287E-07
   7.10000  1.622061E-07
   7.12000  1.603816E-07
   7.14000  1.586144E-07
   7.16000  1.568439E-07
   7.18000  1.551285E-07
   7.20000  1.534203E-07
   7.22000  1.517188E-07
   7.24000  1.500579E-07
   7.26000  1.484139E-07
   7.28000  1.467861E-07
   7.30000  1.451960E-07
   7.32000  1.436207E-07
   7.34000  1.420597E-07
   7.36000  1.405336E-07
   7.38000  1.390415E-07
   7.40000  1.375615E-07
   7.42000  1.360930E-07
   7.44000  1.346357E-07
   7.46000  1.332094E-07
   7.48000  1.317715E-07
   7.50000  1.304045E-07
   7.52000  1.290051E-07
   7.54000  1.276744E-07
   7.56000  1.263301E-07
   7.58000  1.249933E-07
   7.60000  1.236824E-07
   7.62000  1.223966E-07
   7.64000  1.211349E-07
   7.66000  1.198786E-07
   7.68000  1.186453E-07
   7.70000  1.174343E-07
   7.72000  1.162071E-07
   7.74000  1.150387E-07
   7.76000  1.138534E-07
   7.78000  1.127079E-07
   7.80000  1.115619E-07
   7.82000  1.104345E-07
   7.84000  1.093088E-07
   7.86000  1.082173E-07
   7.88000  1.071265E-07
   7.90000  1.060332E-07
   7.92000  1.049911E-07
   7.94000  1.039486E-07
   7.96000  1.029023E-07
   7.98000  1.018861E-07
   8.00000  1.008686E-07
   8.02000  9.986140E-08
   8.04000  9.890432E-08
   8.06000  9.793764E-08
   8.08000  9.693903E-08
   8.10000  9.599640E-08
   8.12000  9.506864E-08
   8.14000  9.413006E-08
   8.16000  9.323781E-08
   8.18000  9.233380E-08
   8.20000  9.144324E-08
   8.22000  9.056200E-08
   8.24000  8.968187E-08
   8.26000  8.883162E-08
   8.28000  8.798143E-08
   8.30000  8.712974E-08
   8.32000  8.630774E-08
   8.34000  8.549665E-08
   8.36000  8.467110E-08
   8.38000  8.388571E-08
   8.40000  8.308522E-08
   8.42000  8.230712E-08
   8.44000  8.154242E-08
   8.46000  8.075812E-08
   8.48000  8.002724E-08
   8.50000  7.927635E-08
   8.52000  7.853718E-08
   8.54000  7.781789E-08
   8.56000  7.708152E-08
   8.58000  7.638045E-08
   8.60000  7.568475E-08
   8.62000  7.498460E-08
   8.64000  7.428917E-08
   8.66000  7.361598E-08
   8.68000  7.294655E-08
   8.70000  7.228309E-08
   8.72000  7.163180E-08
   8.74000  7.097234E-08
   8.76000  7.031835E-08
   8.78000  6.968159E-08
   8.80000  6.906020E-08
   8.82000  6.845489E-08
   8.84000  6.783889E-08
   8.86000  6.722804E-08
   8.88000  6.664146E-08
   8.90000  6.603448E-08
   8.92000  6.544121E-08
   8.94000  6.486171E-08
   8.96000  6.430488E-08
   8.98000  6.372701E-08
   9.00000  6.318556E-08
   9.02000  6.260856E-08
   9.04000  6.207667E-08
   9.06000  6.152322E-08
   9.08000  6.099049E-08
   9.10000  6.046837E-08
   9.12000  5.993403E-08
   9.14000  5.940980E-08
   9.16000  5.890489E-08
   9.18000  5.840917E-08
   9.20000  5.790081E-08
   9.22000  5.740606E-08
   9.24000  5.689755E-08
   9.26000  5.642892E-08
   9.28000  5.594599E-08
   9.30000  5.545856E-08
   9.32000  5.499992E-08
   9.34000  5.453629E-08
   9.36000  5.406611E-08
   9.38000  5.361690E-08
   9.40000  5.316872E-08
   9.42000  5.270713E-08
   9.44000  5.227977E-08
   9.46000  5.184657E-08
   9.48000  5.139775E-08
   9.50000  5.098387E-08
   9.52000  5.056166E-08
   9.54000  5.013324E-08
   9.56000  4.971634E-08
   9.58000  4.930542E-08
   9.60000  4.891269E-08
   9.62000  4.850581E-08
   9.64000  4.810921E-08
   9.66000  4.770574E-08
   9.68000  4.731917E-08
   9.70000  4.693748E-08
   9.72000  4.655287E-08
   9.74000  4.617289E-08
   9.76000  4.580640E-08
   9.78000  4.543631E-08
   9.80000  4.507035E-08
   9.82000  4.470724E-08
   9.84000  4.434794E-08
   9.86000  4.399589E-08
   9.88000  4.364246E-08
   9.90000  4.328436E-08
   9.92000  4.294748E-08
   9.94000  4.260547E-08
   9.96000  4.226157E-08
   9.98000  4.192354E-08
   10.0000  4.159454E-08
