Ni Rho=8.902, Sig=0.nm, P=1., E=10000.eV
 Angle (deg), Reflectivity
   0.000000  1.00000
   2.000000E-02  0.987468
   4.000000E-02  0.974962
   6.000000E-02  0.962349
   8.000000E-02  0.949488
   0.100000  0.936224
   0.120000  0.922372
   0.140000  0.907710
   0.160000  0.891948
   0.180000  0.874699
   0.200000  0.855418
   0.220000  0.833292
   0.240000  0.807030
   0.260000  0.774415
   0.280000  0.731200
   0.300000  0.667987
   0.320000  0.560344
   0.340000  0.370859
   0.360000  0.209760
   0.380000  0.130140
   0.400000  8.790703E-02
   0.420000  6.284484E-02
   0.440000  4.675731E-02
   0.460000  3.584041E-02
   0.480000  2.811964E-02
   0.500000  2.248132E-02
   0.520000  1.825649E-02
   0.540000  1.502297E-02
   0.560000  1.250367E-02
   0.580000  1.051071E-02
   0.600000  8.913131E-03
   0.620000  7.617561E-03
   0.640000  6.556049E-03
   0.660000  5.678284E-03
   0.680000  4.946421E-03
   0.700000  4.331625E-03
   0.720000  3.811619E-03
   0.740000  3.369031E-03
   0.760000  2.990157E-03
   0.780000  2.664102E-03
   0.800000  2.382105E-03
   0.820000  2.137090E-03
   0.840000  1.923299E-03
   0.860000  1.736001E-03
   0.880000  1.571297E-03
   0.900000  1.425946E-03
   0.920000  1.297244E-03
   0.940000  1.182929E-03
   0.960000  1.081090E-03
   0.980000  9.901056E-04
   1.00000  9.086040E-04
   1.02000  8.354107E-04
   1.04000  7.695148E-04
   1.06000  7.100590E-04
   1.08000  6.562918E-04
   1.10000  6.075641E-04
   1.12000  5.633181E-04
   1.14000  5.230629E-04
   1.16000  4.863687E-04
   1.18000  4.528634E-04
   1.20000  4.222175E-04
   1.22000  3.941389E-04
   1.24000  3.683739E-04
   1.26000  3.446961E-04
   1.28000  3.229023E-04
   1.30000  3.028152E-04
   1.32000  2.842785E-04
   1.34000  2.671450E-04
   1.36000  2.512920E-04
   1.38000  2.366049E-04
   1.40000  2.229816E-04
   1.42000  2.103297E-04
   1.44000  1.985677E-04
   1.46000  1.876207E-04
   1.48000  1.774228E-04
   1.50000  1.679115E-04
   1.52000  1.590318E-04
   1.54000  1.507339E-04
   1.56000  1.429729E-04
   1.58000  1.357076E-04
   1.60000  1.289000E-04
   1.62000  1.225156E-04
   1.64000  1.165240E-04
   1.66000  1.108949E-04
   1.68000  1.056039E-04
   1.70000  1.006251E-04
   1.72000  9.593803E-05
   1.74000  9.152175E-05
   1.76000  8.735765E-05
   1.78000  8.342796E-05
   1.80000  7.971772E-05
   1.82000  7.621253E-05
   1.84000  7.289866E-05
   1.86000  6.976315E-05
   1.88000  6.679591E-05
   1.90000  6.398484E-05
   1.92000  6.132010E-05
   1.94000  5.879299E-05
   1.96000  5.639583E-05
   1.98000  5.411946E-05
   2.00000  5.195776E-05
   2.02000  4.990228E-05
   2.04000  4.794827E-05
   2.06000  4.608967E-05
   2.08000  4.431964E-05
   2.10000  4.263434E-05
   2.12000  4.102929E-05
   2.14000  3.949832E-05
   2.16000  3.803888E-05
   2.18000  3.664590E-05
   2.20000  3.531694E-05
   2.22000  3.404691E-05
   2.24000  3.283428E-05
   2.26000  3.167511E-05
   2.28000  3.056667E-05
   2.30000  2.950669E-05
   2.32000  2.849245E-05
   2.34000  2.752129E-05
   2.36000  2.659100E-05
   2.38000  2.570024E-05
   2.40000  2.484629E-05
   2.42000  2.402775E-05
   2.44000  2.324255E-05
   2.46000  2.248924E-05
   2.48000  2.176612E-05
   2.50000  2.107212E-05
   2.52000  2.040568E-05
   2.54000  1.976540E-05
   2.56000  1.915000E-05
   2.58000  1.855835E-05
   2.60000  1.798944E-05
   2.62000  1.744268E-05
   2.64000  1.691626E-05
   2.66000  1.640926E-05
   2.68000  1.592155E-05
   2.70000  1.545162E-05
   2.72000  1.499901E-05
   2.74000  1.456294E-05
   2.76000  1.414257E-05
   2.78000  1.373732E-05
   2.80000  1.334635E-05
   2.82000  1.296949E-05
   2.84000  1.260595E-05
   2.86000  1.225466E-05
   2.88000  1.191576E-05
   2.90000  1.158858E-05
   2.92000  1.127245E-05
   2.94000  1.096708E-05
   2.96000  1.067213E-05
   2.98000  1.038690E-05
   3.00000  1.011123E-05
   3.02000  9.844576E-06
   3.04000  9.586809E-06
   3.06000  9.337144E-06
   3.08000  9.095801E-06
   3.10000  8.862327E-06
   3.12000  8.636014E-06
   3.14000  8.417092E-06
   3.16000  8.205076E-06
   3.18000  7.999593E-06
   3.20000  7.800686E-06
   3.22000  7.607713E-06
   3.24000  7.420856E-06
   3.26000  7.239682E-06
   3.28000  7.063978E-06
   3.30000  6.893541E-06
   3.32000  6.728267E-06
   3.34000  6.567949E-06
   3.36000  6.412346E-06
   3.38000  6.261429E-06
   3.40000  6.114718E-06
   3.42000  5.972451E-06
   3.44000  5.834313E-06
   3.46000  5.700004E-06
   3.48000  5.569691E-06
   3.50000  5.443083E-06
   3.52000  5.320047E-06
   3.54000  5.200458E-06
   3.56000  5.084063E-06
   3.58000  4.971084E-06
   3.60000  4.861270E-06
   3.62000  4.754445E-06
   3.64000  4.650321E-06
   3.66000  4.549303E-06
   3.68000  4.450917E-06
   3.70000  4.355313E-06
   3.72000  4.262163E-06
   3.74000  4.171381E-06
   3.76000  4.083124E-06
   3.78000  3.997182E-06
   3.80000  3.913382E-06
   3.82000  3.831975E-06
   3.84000  3.752555E-06
   3.86000  3.675266E-06
   3.88000  3.599846E-06
   3.90000  3.526520E-06
   3.92000  3.454736E-06
   3.94000  3.385031E-06
   3.96000  3.317137E-06
   3.98000  3.250717E-06
   4.00000  3.186191E-06
   4.02000  3.123123E-06
   4.04000  3.061652E-06
   4.06000  3.001465E-06
   4.08000  2.943042E-06
   4.10000  2.885990E-06
   4.12000  2.830248E-06
   4.14000  2.775871E-06
   4.16000  2.722744E-06
   4.18000  2.670974E-06
   4.20000  2.620352E-06
   4.22000  2.571030E-06
   4.24000  2.522784E-06
   4.26000  2.475673E-06
   4.28000  2.429572E-06
   4.30000  2.384694E-06
   4.32000  2.340762E-06
   4.34000  2.297834E-06
   4.36000  2.255907E-06
   4.38000  2.215021E-06
   4.40000  2.174966E-06
   4.42000  2.135801E-06
   4.44000  2.097557E-06
   4.46000  2.060207E-06
   4.48000  2.023588E-06
   4.50000  1.987868E-06
   4.52000  1.952912E-06
   4.54000  1.918623E-06
   4.56000  1.885159E-06
   4.58000  1.852446E-06
   4.60000  1.820387E-06
   4.62000  1.789113E-06
   4.64000  1.758500E-06
   4.66000  1.728389E-06
   4.68000  1.699023E-06
   4.70000  1.670289E-06
   4.72000  1.642169E-06
   4.74000  1.614620E-06
   4.76000  1.587652E-06
   4.78000  1.561290E-06
   4.80000  1.535407E-06
   4.82000  1.509991E-06
   4.84000  1.485243E-06
   4.86000  1.460970E-06
   4.88000  1.437176E-06
   4.90000  1.413842E-06
   4.92000  1.391010E-06
   4.94000  1.368564E-06
   4.96000  1.346631E-06
   4.98000  1.325158E-06
   5.00000  1.304073E-06
   5.02000  1.283459E-06
   5.04000  1.263175E-06
   5.06000  1.243340E-06
   5.08000  1.223908E-06
   5.10000  1.204808E-06
   5.12000  1.186065E-06
   5.14000  1.167757E-06
   5.16000  1.149747E-06
   5.18000  1.132125E-06
   5.20000  1.114846E-06
   5.22000  1.097814E-06
   5.24000  1.081225E-06
   5.26000  1.064867E-06
   5.28000  1.048817E-06
   5.30000  1.033097E-06
   5.32000  1.017669E-06
   5.34000  1.002498E-06
   5.36000  9.876580E-07
   5.38000  9.730340E-07
   5.40000  9.587505E-07
   5.42000  9.446957E-07
   5.44000  9.308633E-07
   5.46000  9.173223E-07
   5.48000  9.040646E-07
   5.50000  8.909366E-07
   5.52000  8.781520E-07
   5.54000  8.655583E-07
   5.56000  8.531964E-07
   5.58000  8.410146E-07
   5.60000  8.290777E-07
   5.62000  8.173790E-07
   5.64000  8.058200E-07
   5.66000  7.945555E-07
   5.68000  7.834204E-07
   5.70000  7.725012E-07
   5.72000  7.617273E-07
   5.74000  7.511997E-07
   5.76000  7.408480E-07
   5.78000  7.306909E-07
   5.80000  7.206377E-07
   5.82000  7.108089E-07
   5.84000  7.011608E-07
   5.86000  6.916654E-07
   5.88000  6.823186E-07
   5.90000  6.731035E-07
   5.92000  6.640656E-07
   5.94000  6.551995E-07
   5.96000  6.464886E-07
   5.98000  6.378494E-07
   6.00000  6.294267E-07
   6.02000  6.211473E-07
   6.04000  6.129634E-07
   6.06000  6.049166E-07
   6.08000  5.970136E-07
   6.10000  5.892186E-07
   6.12000  5.816131E-07
   6.14000  5.740776E-07
   6.16000  5.666715E-07
   6.18000  5.593614E-07
   6.20000  5.522251E-07
   6.22000  5.451782E-07
   6.24000  5.382474E-07
   6.26000  5.314009E-07
   6.28000  5.246857E-07
   6.30000  5.180776E-07
   6.32000  5.115736E-07
   6.34000  5.051709E-07
   6.36000  4.988400E-07
   6.38000  4.926523E-07
   6.40000  4.865112E-07
   6.42000  4.805018E-07
   6.44000  4.745607E-07
   6.46000  4.687760E-07
   6.48000  4.630043E-07
   6.50000  4.573830E-07
   6.52000  4.517717E-07
   6.54000  4.463051E-07
   6.56000  4.408889E-07
   6.58000  4.355686E-07
   6.60000  4.303184E-07
   6.62000  4.251783E-07
   6.64000  4.200849E-07
   6.66000  4.150968E-07
   6.68000  4.101298E-07
   6.70000  4.052858E-07
   6.72000  4.004999E-07
   6.74000  3.957919E-07
   6.76000  3.911385E-07
   6.78000  3.865590E-07
   6.80000  3.820310E-07
   6.82000  3.776117E-07
   6.84000  3.732221E-07
   6.86000  3.688990E-07
   6.88000  3.646583E-07
   6.90000  3.604432E-07
   6.92000  3.563249E-07
   6.94000  3.522309E-07
   6.96000  3.482312E-07
   6.98000  3.442517E-07
   7.00000  3.403809E-07
   7.02000  3.365094E-07
   7.04000  3.327248E-07
   7.06000  3.290078E-07
   7.08000  3.253049E-07
   7.10000  3.216834E-07
   7.12000  3.180739E-07
   7.14000  3.145597E-07
   7.16000  3.110552E-07
   7.18000  3.076422E-07
   7.20000  3.042531E-07
   7.22000  3.008872E-07
   7.24000  2.975917E-07
   7.26000  2.943330E-07
   7.28000  2.911102E-07
   7.30000  2.879531E-07
   7.32000  2.848293E-07
   7.34000  2.817379E-07
   7.36000  2.787079E-07
   7.38000  2.757375E-07
   7.40000  2.727957E-07
   7.42000  2.698818E-07
   7.44000  2.669951E-07
   7.46000  2.641630E-07
   7.48000  2.613258E-07
   7.50000  2.585989E-07
   7.52000  2.558373E-07
   7.54000  2.531826E-07
   7.56000  2.505192E-07
   7.58000  2.478765E-07
   7.60000  2.452802E-07
   7.62000  2.427289E-07
   7.64000  2.402214E-07
   7.66000  2.377309E-07
   7.68000  2.352821E-07
   7.70000  2.328739E-07
   7.72000  2.304522E-07
   7.74000  2.281220E-07
   7.76000  2.257768E-07
   7.78000  2.234963E-07
   7.80000  2.212236E-07
   7.82000  2.189856E-07
   7.84000  2.167582E-07
   7.86000  2.145870E-07
   7.88000  2.124249E-07
   7.90000  2.102672E-07
   7.92000  2.081893E-07
   7.94000  2.061185E-07
   7.96000  2.040499E-07
   7.98000  2.020311E-07
   8.00000  2.000178E-07
   8.02000  1.980262E-07
   8.04000  1.961122E-07
   8.06000  1.941917E-07
   8.08000  1.922333E-07
   8.10000  1.903604E-07
   8.12000  1.885151E-07
   8.14000  1.866612E-07
   8.16000  1.848789E-07
   8.18000  1.830866E-07
   8.20000  1.813195E-07
   8.22000  1.795717E-07
   8.24000  1.778317E-07
   8.26000  1.761396E-07
   8.28000  1.744537E-07
   8.30000  1.727715E-07
   8.32000  1.711369E-07
   8.34000  1.695233E-07
   8.36000  1.678950E-07
   8.38000  1.663287E-07
   8.40000  1.647468E-07
   8.42000  1.632016E-07
   8.44000  1.616806E-07
   8.46000  1.601374E-07
   8.48000  1.586743E-07
   8.50000  1.571883E-07
   8.52000  1.557238E-07
   8.54000  1.542921E-07
   8.56000  1.528414E-07
   8.58000  1.514450E-07
   8.60000  1.500610E-07
   8.62000  1.486754E-07
   8.64000  1.473011E-07
   8.66000  1.459626E-07
   8.68000  1.446339E-07
   8.70000  1.433180E-07
   8.72000  1.420236E-07
   8.74000  1.407220E-07
   8.76000  1.394324E-07
   8.78000  1.381711E-07
   8.80000  1.369357E-07
   8.82000  1.357268E-07
   8.84000  1.345071E-07
   8.86000  1.332985E-07
   8.88000  1.321279E-07
   8.90000  1.309326E-07
   8.92000  1.297604E-07
   8.94000  1.286112E-07
   8.96000  1.274976E-07
   8.98000  1.263582E-07
   9.00000  1.252735E-07
   9.02000  1.241425E-07
   9.04000  1.230783E-07
   9.06000  1.219874E-07
   9.08000  1.209290E-07
   9.10000  1.198889E-07
   9.12000  1.188349E-07
   9.14000  1.177985E-07
   9.16000  1.167925E-07
   9.18000  1.158026E-07
   9.20000  1.147981E-07
   9.22000  1.138158E-07
   9.24000  1.128174E-07
   9.26000  1.118779E-07
   9.28000  1.109215E-07
   9.30000  1.099616E-07
   9.32000  1.090452E-07
   9.34000  1.081246E-07
   9.36000  1.071977E-07
   9.38000  1.063031E-07
   9.40000  1.054128E-07
   9.42000  1.045063E-07
   9.44000  1.036506E-07
   9.46000  1.027894E-07
   9.48000  1.019090E-07
   9.50000  1.010802E-07
   9.52000  1.002423E-07
   9.54000  9.939826E-08
   9.56000  9.857290E-08
   9.58000  9.775842E-08
   9.60000  9.697197E-08
   9.62000  9.616807E-08
   9.64000  9.538099E-08
   9.66000  9.458662E-08
   9.68000  9.381836E-08
   9.70000  9.305923E-08
   9.72000  9.229831E-08
   9.74000  9.154613E-08
   9.76000  9.081511E-08
   9.78000  9.008127E-08
   9.80000  8.935537E-08
   9.82000  8.863564E-08
   9.84000  8.792336E-08
   9.86000  8.722337E-08
   9.88000  8.652350E-08
   9.90000  8.581913E-08
   9.92000  8.514657E-08
   9.94000  8.446881E-08
   9.96000  8.379035E-08
   9.98000  8.312210E-08
   10.0000  8.246845E-08
