Ni Rho=8.902, Sig=0.nm, P=1., E=20000.eV
 Angle (deg), Reflectivity
   0.000000  1.00000
   2.000000E-02  0.992729
   4.000000E-02  0.985204
   6.000000E-02  0.977054
   8.000000E-02  0.967745
   0.100000  0.956346
   0.120000  0.940876
   0.140000  0.915717
   0.160000  0.850653
   0.180000  0.275296
   0.200000  0.101224
   0.220000  5.217874E-02
   0.240000  3.094053E-02
   0.260000  1.992732E-02
   0.280000  1.357765E-02
   0.300000  9.644012E-03
   0.320000  7.075018E-03
   0.340000  5.327299E-03
   0.360000  4.098689E-03
   0.380000  3.211325E-03
   0.400000  2.555666E-03
   0.420000  2.061673E-03
   0.440000  1.683137E-03
   0.460000  1.388729E-03
   0.480000  1.156720E-03
   0.500000  9.717231E-04
   0.520000  8.226473E-04
   0.540000  7.013563E-04
   0.560000  6.018102E-04
   0.580000  5.194580E-04
   0.600000  4.508276E-04
   0.620000  3.932469E-04
   0.640000  3.446333E-04
   0.660000  3.033526E-04
   0.680000  2.681074E-04
   0.700000  2.378646E-04
   0.720000  2.117901E-04
   0.740000  1.892107E-04
   0.760000  1.695755E-04
   0.780000  1.524354E-04
   0.800000  1.374161E-04
   0.820000  1.242085E-04
   0.840000  1.125569E-04
   0.860000  1.022453E-04
   0.880000  9.309267E-05
   0.900000  8.494486E-05
   0.920000  7.767153E-05
   0.940000  7.116319E-05
   0.960000  6.532495E-05
   0.980000  6.007458E-05
   1.00000  5.534300E-05
   1.02000  5.106959E-05
   1.04000  4.720096E-05
   1.06000  4.369370E-05
   1.08000  4.050704E-05
   1.10000  3.760583E-05
   1.12000  3.496067E-05
   1.14000  3.254467E-05
   1.16000  3.033385E-05
   1.18000  2.830820E-05
   1.20000  2.644938E-05
   1.22000  2.474062E-05
   1.24000  2.316807E-05
   1.26000  2.171894E-05
   1.28000  2.038126E-05
   1.30000  1.914509E-05
   1.32000  1.800196E-05
   1.34000  1.694238E-05
   1.36000  1.596002E-05
   1.38000  1.504799E-05
   1.40000  1.420032E-05
   1.42000  1.341142E-05
   1.44000  1.267670E-05
   1.46000  1.199165E-05
   1.48000  1.135260E-05
   1.50000  1.075548E-05
   1.52000  1.019707E-05
   1.54000  9.674398E-06
   1.56000  9.184845E-06
   1.58000  8.725993E-06
   1.60000  8.295468E-06
   1.62000  7.891158E-06
   1.64000  7.511377E-06
   1.66000  7.153988E-06
   1.68000  6.817826E-06
   1.70000  6.500983E-06
   1.72000  6.202516E-06
   1.74000  5.920998E-06
   1.76000  5.655290E-06
   1.78000  5.404180E-06
   1.80000  5.166906E-06
   1.82000  4.942618E-06
   1.84000  4.730404E-06
   1.86000  4.529364E-06
   1.88000  4.339133E-06
   1.90000  4.158687E-06
   1.92000  3.987407E-06
   1.94000  3.824841E-06
   1.96000  3.670664E-06
   1.98000  3.524050E-06
   2.00000  3.384850E-06
   2.02000  3.252217E-06
   2.04000  3.126157E-06
   2.06000  3.006261E-06
   2.08000  2.891840E-06
   2.10000  2.782903E-06
   2.12000  2.679226E-06
   2.14000  2.580095E-06
   2.16000  2.485662E-06
   2.18000  2.395387E-06
   2.20000  2.309349E-06
   2.22000  2.226905E-06
   2.24000  2.148284E-06
   2.26000  2.073059E-06
   2.28000  2.001075E-06
   2.30000  1.932265E-06
   2.32000  1.866408E-06
   2.34000  1.803277E-06
   2.36000  1.742730E-06
   2.38000  1.684825E-06
   2.40000  1.629240E-06
   2.42000  1.575969E-06
   2.44000  1.524816E-06
   2.46000  1.475727E-06
   2.48000  1.428560E-06
   2.50000  1.383322E-06
   2.52000  1.339880E-06
   2.54000  1.298120E-06
   2.56000  1.257954E-06
   2.58000  1.219313E-06
   2.60000  1.182151E-06
   2.62000  1.146517E-06
   2.64000  1.112135E-06
   2.66000  1.078948E-06
   2.68000  1.047095E-06
   2.70000  1.016350E-06
   2.72000  9.867425E-07
   2.74000  9.582196E-07
   2.76000  9.307080E-07
   2.78000  9.041845E-07
   2.80000  8.785580E-07
   2.82000  8.539039E-07
   2.84000  8.301337E-07
   2.86000  8.070741E-07
   2.88000  7.848686E-07
   2.90000  7.634385E-07
   2.92000  7.427018E-07
   2.94000  7.226760E-07
   2.96000  7.033544E-07
   2.98000  6.846372E-07
   3.00000  6.665564E-07
   3.02000  6.490502E-07
   3.04000  6.321502E-07
   3.06000  6.157211E-07
   3.08000  5.998832E-07
   3.10000  5.845797E-07
   3.12000  5.696850E-07
   3.14000  5.553140E-07
   3.16000  5.413941E-07
   3.18000  5.278793E-07
   3.20000  5.148282E-07
   3.22000  5.021220E-07
   3.24000  4.898504E-07
   3.26000  4.779446E-07
   3.28000  4.663898E-07
   3.30000  4.551721E-07
   3.32000  4.443015E-07
   3.34000  4.337603E-07
   3.36000  4.235196E-07
   3.38000  4.136050E-07
   3.40000  4.039238E-07
   3.42000  3.945667E-07
   3.44000  3.854817E-07
   3.46000  3.766188E-07
   3.48000  3.680473E-07
   3.50000  3.597171E-07
   3.52000  3.516188E-07
   3.54000  3.437437E-07
   3.56000  3.360483E-07
   3.58000  3.286118E-07
   3.60000  3.213900E-07
   3.62000  3.143581E-07
   3.64000  3.074598E-07
   3.66000  3.008188E-07
   3.68000  2.943306E-07
   3.70000  2.880504E-07
   3.72000  2.819105E-07
   3.74000  2.759041E-07
   3.76000  2.700876E-07
   3.78000  2.644206E-07
   3.80000  2.588728E-07
   3.82000  2.535234E-07
   3.84000  2.482795E-07
   3.86000  2.431918E-07
   3.88000  2.382042E-07
   3.90000  2.333869E-07
   3.92000  2.286088E-07
   3.94000  2.240192E-07
   3.96000  2.195598E-07
   3.98000  2.151531E-07
   4.00000  2.109181E-07
   4.02000  2.067511E-07
   4.04000  2.026974E-07
   4.06000  1.986851E-07
   4.08000  1.948463E-07
   4.10000  1.910883E-07
   4.12000  1.874028E-07
   4.14000  1.838120E-07
   4.16000  1.802935E-07
   4.18000  1.768819E-07
   4.20000  1.735306E-07
   4.22000  1.702853E-07
   4.24000  1.670947E-07
   4.26000  1.639802E-07
   4.28000  1.609159E-07
   4.30000  1.579623E-07
   4.32000  1.550536E-07
   4.34000  1.522107E-07
   4.36000  1.494380E-07
   4.38000  1.467505E-07
   4.40000  1.440992E-07
   4.42000  1.415044E-07
   4.44000  1.389787E-07
   4.46000  1.365195E-07
   4.48000  1.340893E-07
   4.50000  1.317353E-07
   4.52000  1.294275E-07
   4.54000  1.271440E-07
   4.56000  1.249302E-07
   4.58000  1.227706E-07
   4.60000  1.206434E-07
   4.62000  1.185863E-07
   4.64000  1.165705E-07
   4.66000  1.145584E-07
   4.68000  1.126159E-07
   4.70000  1.107171E-07
   4.72000  1.088605E-07
   4.74000  1.070375E-07
   4.76000  1.052536E-07
   4.78000  1.035184E-07
   4.80000  1.018017E-07
   4.82000  1.001026E-07
   4.84000  9.847599E-08
   4.86000  9.687443E-08
   4.88000  9.530125E-08
   4.90000  9.375400E-08
   4.92000  9.224548E-08
   4.94000  9.074821E-08
   4.96000  8.929681E-08
   4.98000  8.788033E-08
   5.00000  8.648139E-08
   5.02000  8.512406E-08
   5.04000  8.377345E-08
   5.06000  8.246216E-08
   5.08000  8.118021E-08
   5.10000  7.991121E-08
   5.12000  7.866279E-08
   5.14000  7.745714E-08
   5.16000  7.626080E-08
   5.18000  7.509798E-08
   5.20000  7.395865E-08
   5.22000  7.281989E-08
   5.24000  7.173345E-08
   5.26000  7.064612E-08
   5.28000  6.957928E-08
   5.30000  6.853971E-08
   5.32000  6.751886E-08
   5.34000  6.650935E-08
   5.36000  6.553104E-08
   5.38000  6.455581E-08
   5.40000  6.361680E-08
   5.42000  6.268625E-08
   5.44000  6.176371E-08
   5.46000  6.086811E-08
   5.48000  5.999842E-08
   5.50000  5.911588E-08
   5.52000  5.827685E-08
   5.54000  5.744281E-08
   5.56000  5.662530E-08
   5.58000  5.581189E-08
   5.60000  5.502023E-08
   5.62000  5.424953E-08
   5.64000  5.347511E-08
   5.66000  5.273788E-08
   5.68000  5.199594E-08
   5.70000  5.127248E-08
   5.72000  5.055004E-08
   5.74000  4.985549E-08
   5.76000  4.917132E-08
   5.78000  4.850319E-08
   5.80000  4.782825E-08
   5.82000  4.717842E-08
   5.84000  4.654305E-08
   5.86000  4.591556E-08
   5.88000  4.529554E-08
   5.90000  4.467926E-08
   5.92000  4.407904E-08
   5.94000  4.349416E-08
   5.96000  4.292085E-08
   5.98000  4.233812E-08
   6.00000  4.178393E-08
   6.02000  4.124000E-08
   6.04000  4.069439E-08
   6.06000  4.015843E-08
   6.08000  3.963433E-08
   6.10000  3.911336E-08
   6.12000  3.861707E-08
   6.14000  3.811505E-08
   6.16000  3.762310E-08
   6.18000  3.713300E-08
   6.20000  3.666540E-08
   6.22000  3.619887E-08
   6.24000  3.574069E-08
   6.26000  3.528308E-08
   6.28000  3.483864E-08
   6.30000  3.440146E-08
   6.32000  3.397117E-08
   6.34000  3.354740E-08
   6.36000  3.312290E-08
   6.38000  3.271653E-08
   6.40000  3.230362E-08
   6.42000  3.190656E-08
   6.44000  3.150926E-08
   6.46000  3.113487E-08
   6.48000  3.074657E-08
   6.50000  3.038027E-08
   6.52000  2.999994E-08
   6.54000  2.964075E-08
   6.56000  2.927857E-08
   6.58000  2.892546E-08
   6.60000  2.857506E-08
   6.62000  2.823800E-08
   6.64000  2.789812E-08
   6.66000  2.757089E-08
   6.68000  2.723472E-08
   6.70000  2.691630E-08
   6.72000  2.659906E-08
   6.74000  2.628835E-08
   6.76000  2.597841E-08
   6.78000  2.567449E-08
   6.80000  2.537097E-08
   6.82000  2.508292E-08
   6.84000  2.479008E-08
   6.86000  2.450222E-08
   6.88000  2.422367E-08
   6.90000  2.393992E-08
   6.92000  2.366963E-08
   6.94000  2.339421E-08
   6.96000  2.313198E-08
   6.98000  2.286394E-08
   7.00000  2.261320E-08
   7.02000  2.235162E-08
   7.04000  2.210208E-08
   7.06000  2.185975E-08
   7.08000  2.161092E-08
   7.10000  2.137324E-08
   7.12000  2.112887E-08
   7.14000  2.089955E-08
   7.16000  2.066326E-08
   7.18000  2.044139E-08
   7.20000  2.021654E-08
   7.22000  1.998870E-08
   7.24000  1.977023E-08
   7.26000  1.955261E-08
   7.28000  1.933571E-08
   7.30000  1.912740E-08
   7.32000  1.891944E-08
   7.34000  1.871172E-08
   7.36000  1.851187E-08
   7.38000  1.831957E-08
   7.40000  1.812693E-08
   7.42000  1.793387E-08
   7.44000  1.774033E-08
   7.46000  1.755356E-08
   7.48000  1.735820E-08
   7.50000  1.718421E-08
   7.52000  1.699422E-08
   7.54000  1.682497E-08
   7.56000  1.664665E-08
   7.58000  1.646698E-08
   7.60000  1.629270E-08
   7.62000  1.612358E-08
   7.64000  1.595939E-08
   7.66000  1.579330E-08
   7.68000  1.563183E-08
   7.70000  1.547475E-08
   7.72000  1.530813E-08
   7.74000  1.515932E-08
   7.76000  1.500079E-08
   7.78000  1.485327E-08
   7.80000  1.470211E-08
   7.82000  1.455438E-08
   7.84000  1.440391E-08
   7.86000  1.426259E-08
   7.88000  1.411832E-08
   7.90000  1.396994E-08
   7.92000  1.383709E-08
   7.94000  1.370099E-08
   7.96000  1.356046E-08
   7.98000  1.342789E-08
   8.00000  1.329191E-08
   8.02000  1.315675E-08
   8.04000  1.303698E-08
   8.06000  1.291090E-08
   8.08000  1.277042E-08
   8.10000  1.264756E-08
   8.12000  1.252744E-08
   8.14000  1.240070E-08
   8.16000  1.228822E-08
   8.18000  1.216886E-08
   8.20000  1.205187E-08
   8.22000  1.193577E-08
   8.24000  1.181759E-08
   8.26000  1.170786E-08
   8.28000  1.159574E-08
   8.30000  1.148072E-08
   8.32000  1.137416E-08
   8.34000  1.126930E-08
   8.36000  1.115689E-08
   8.38000  1.105688E-08
   8.40000  1.094916E-08
   8.42000  1.084743E-08
   8.44000  1.074843E-08
   8.46000  1.064020E-08
   8.48000  1.054933E-08
   8.50000  1.044913E-08
   8.52000  1.035116E-08
   8.54000  1.025845E-08
   8.56000  1.015755E-08
   8.58000  1.006758E-08
   8.60000  9.977631E-09
   8.62000  9.884190E-09
   8.64000  9.790602E-09
   8.66000  9.703288E-09
   8.68000  9.615523E-09
   8.70000  9.528161E-09
   8.72000  9.443468E-09
   8.74000  9.354062E-09
   8.76000  9.264947E-09
   8.78000  9.180408E-09
   8.80000  9.099805E-09
   8.82000  9.023404E-09
   8.84000  8.941504E-09
   8.86000  8.859878E-09
   8.88000  8.785509E-09
   8.90000  8.702158E-09
   8.92000  8.622274E-09
   8.94000  8.545877E-09
   8.96000  8.476242E-09
   8.98000  8.397476E-09
   9.00000  8.330516E-09
   9.02000  8.249178E-09
   9.04000  8.182845E-09
   9.06000  8.107267E-09
   9.08000  8.037857E-09
   9.10000  7.970945E-09
   9.12000  7.898246E-09
   9.14000  7.827897E-09
   9.16000  7.763278E-09
   9.18000  7.700709E-09
   9.20000  7.632267E-09
   9.22000  7.567524E-09
   9.24000  7.496533E-09
   9.26000  7.438830E-09
   9.28000  7.374712E-09
   9.30000  7.307767E-09
   9.32000  7.250114E-09
   9.34000  7.189490E-09
   9.36000  7.125325E-09
   9.38000  7.067670E-09
   9.40000  7.009263E-09
   9.42000  6.944871E-09
   9.44000  6.891847E-09
   9.46000  6.835620E-09
   9.48000  6.772646E-09
   9.50000  6.721340E-09
   9.52000  6.665958E-09
   9.54000  6.607300E-09
   9.56000  6.551817E-09
   9.58000  6.497515E-09
   9.60000  6.448848E-09
   9.62000  6.394058E-09
   9.64000  6.342043E-09
   9.66000  6.286580E-09
   9.68000  6.236329E-09
   9.70000  6.186929E-09
   9.72000  6.135549E-09
   9.74000  6.084953E-09
   9.76000  6.038374E-09
   9.78000  5.989600E-09
   9.80000  5.941460E-09
   9.82000  5.893491E-09
   9.84000  5.846065E-09
   9.86000  5.800435E-09
   9.88000  5.753474E-09
   9.90000  5.703989E-09
   9.92000  5.661424E-09
   9.94000  5.616188E-09
   9.96000  5.569474E-09
   9.98000  5.524114E-09
   10.0000  5.481274E-09
