Ni Rho=8.902, Sig=0.nm, P=1., E=27000.eV
 Angle (deg), Reflectivity
   0.000000  1.00000
   2.000000E-02  0.994306
   4.000000E-02  0.988185
   6.000000E-02  0.980975
   8.000000E-02  0.971325
   0.100000  0.955095
   0.120000  0.899831
   0.140000  0.161423
   0.160000  5.819758E-02
   0.180000  2.859828E-02
   0.200000  1.622514E-02
   0.220000  1.005428E-02
   0.240000  6.624219E-03
   0.260000  4.568616E-03
   0.280000  3.265647E-03
   0.300000  2.402773E-03
   0.320000  1.810765E-03
   0.340000  1.392519E-03
   0.360000  1.089638E-03
   0.380000  8.655963E-04
   0.400000  6.967885E-04
   0.420000  5.675226E-04
   0.440000  4.671094E-04
   0.460000  3.881013E-04
   0.480000  3.252153E-04
   0.500000  2.746388E-04
   0.520000  2.335764E-04
   0.540000  1.999458E-04
   0.560000  1.721835E-04
   0.580000  1.490978E-04
   0.600000  1.297697E-04
   0.620000  1.134867E-04
   0.640000  9.968833E-05
   0.660000  8.793212E-05
   0.680000  7.786410E-05
   0.700000  6.920128E-05
   0.720000  6.171338E-05
   0.740000  5.521442E-05
   0.760000  4.955072E-05
   0.780000  4.459748E-05
   0.800000  4.024920E-05
   0.820000  3.641886E-05
   0.840000  3.303476E-05
   0.860000  3.003558E-05
   0.880000  2.737012E-05
   0.900000  2.499428E-05
   0.920000  2.287082E-05
   0.940000  2.096880E-05
   0.960000  1.926100E-05
   0.980000  1.772357E-05
   1.00000  1.633692E-05
   1.02000  1.508352E-05
   1.04000  1.394774E-05
   1.06000  1.291754E-05
   1.08000  1.198086E-05
   1.10000  1.112740E-05
   1.12000  1.034886E-05
   1.14000  9.637375E-06
   1.16000  8.985844E-06
   1.18000  8.388632E-06
   1.20000  7.840375E-06
   1.22000  7.336055E-06
   1.24000  6.871767E-06
   1.26000  6.443794E-06
   1.28000  6.048489E-06
   1.30000  5.683019E-06
   1.32000  5.345079E-06
   1.34000  5.031558E-06
   1.36000  4.740857E-06
   1.38000  4.470897E-06
   1.40000  4.219912E-06
   1.42000  3.986215E-06
   1.44000  3.768527E-06
   1.46000  3.565491E-06
   1.48000  3.376111E-06
   1.50000  3.199070E-06
   1.52000  3.033450E-06
   1.54000  2.878370E-06
   1.56000  2.733089E-06
   1.58000  2.596913E-06
   1.60000  2.469115E-06
   1.62000  2.349065E-06
   1.64000  2.236318E-06
   1.66000  2.130145E-06
   1.68000  2.030311E-06
   1.70000  1.936143E-06
   1.72000  1.847463E-06
   1.74000  1.763805E-06
   1.76000  1.684832E-06
   1.78000  1.610147E-06
   1.80000  1.539578E-06
   1.82000  1.472886E-06
   1.84000  1.409781E-06
   1.86000  1.349965E-06
   1.88000  1.293416E-06
   1.90000  1.239739E-06
   1.92000  1.188752E-06
   1.94000  1.140348E-06
   1.96000  1.094483E-06
   1.98000  1.050828E-06
   2.00000  1.009417E-06
   2.02000  9.698933E-07
   2.04000  9.323597E-07
   2.06000  8.966850E-07
   2.08000  8.625795E-07
   2.10000  8.301281E-07
   2.12000  7.992849E-07
   2.14000  7.697295E-07
   2.16000  7.416116E-07
   2.18000  7.146972E-07
   2.20000  6.890875E-07
   2.22000  6.644854E-07
   2.24000  6.410671E-07
   2.26000  6.186465E-07
   2.28000  5.971843E-07
   2.30000  5.766852E-07
   2.32000  5.570694E-07
   2.34000  5.382485E-07
   2.36000  5.201811E-07
   2.38000  5.029312E-07
   2.40000  4.863543E-07
   2.42000  4.704768E-07
   2.44000  4.552185E-07
   2.46000  4.405759E-07
   2.48000  4.264963E-07
   2.50000  4.130063E-07
   2.52000  4.000560E-07
   2.54000  3.876033E-07
   2.56000  3.756203E-07
   2.58000  3.640870E-07
   2.60000  3.529960E-07
   2.62000  3.423915E-07
   2.64000  3.321375E-07
   2.66000  3.222183E-07
   2.68000  3.127233E-07
   2.70000  3.035436E-07
   2.72000  2.947075E-07
   2.74000  2.861980E-07
   2.76000  2.779865E-07
   2.78000  2.700716E-07
   2.80000  2.624136E-07
   2.82000  2.550636E-07
   2.84000  2.479827E-07
   2.86000  2.410851E-07
   2.88000  2.344576E-07
   2.90000  2.280654E-07
   2.92000  2.218713E-07
   2.94000  2.158922E-07
   2.96000  2.101316E-07
   2.98000  2.045413E-07
   3.00000  1.991454E-07
   3.02000  1.939159E-07
   3.04000  1.888762E-07
   3.06000  1.839577E-07
   3.08000  1.792314E-07
   3.10000  1.746713E-07
   3.12000  1.702137E-07
   3.14000  1.659257E-07
   3.16000  1.617723E-07
   3.18000  1.577324E-07
   3.20000  1.538422E-07
   3.22000  1.500404E-07
   3.24000  1.463799E-07
   3.26000  1.428265E-07
   3.28000  1.393755E-07
   3.30000  1.360226E-07
   3.32000  1.327762E-07
   3.34000  1.296298E-07
   3.36000  1.265704E-07
   3.38000  1.236146E-07
   3.40000  1.207145E-07
   3.42000  1.179220E-07
   3.44000  1.152113E-07
   3.46000  1.125572E-07
   3.48000  1.099999E-07
   3.50000  1.075140E-07
   3.52000  1.050967E-07
   3.54000  1.027449E-07
   3.56000  1.004369E-07
   3.58000  9.821775E-08
   3.60000  9.606504E-08
   3.62000  9.396681E-08
   3.64000  9.189405E-08
   3.66000  8.991579E-08
   3.68000  8.797655E-08
   3.70000  8.610780E-08
   3.72000  8.427403E-08
   3.74000  8.247272E-08
   3.76000  8.073609E-08
   3.78000  7.904325E-08
   3.80000  7.737889E-08
   3.82000  7.578736E-08
   3.84000  7.421902E-08
   3.86000  7.270264E-08
   3.88000  7.120863E-08
   3.90000  6.977629E-08
   3.92000  6.833498E-08
   3.94000  6.696716E-08
   3.96000  6.564186E-08
   3.98000  6.431767E-08
   4.00000  6.306035E-08
   4.02000  6.181407E-08
   4.04000  6.060436E-08
   4.06000  5.939262E-08
   4.08000  5.825182E-08
   4.10000  5.713204E-08
   4.12000  5.602931E-08
   4.14000  5.495645E-08
   4.16000  5.390186E-08
   4.18000  5.288508E-08
   4.20000  5.188117E-08
   4.22000  5.091569E-08
   4.24000  4.996117E-08
   4.26000  4.902985E-08
   4.28000  4.810803E-08
   4.30000  4.722936E-08
   4.32000  4.635831E-08
   4.34000  4.550674E-08
   4.36000  4.467753E-08
   4.38000  4.387932E-08
   4.40000  4.308575E-08
   4.42000  4.230833E-08
   4.44000  4.155432E-08
   4.46000  4.082269E-08
   4.48000  4.009333E-08
   4.50000  3.939240E-08
   4.52000  3.870383E-08
   4.54000  3.801603E-08
   4.56000  3.735411E-08
   4.58000  3.670987E-08
   4.60000  3.607179E-08
   4.62000  3.546076E-08
   4.64000  3.486129E-08
   4.66000  3.425309E-08
   4.68000  3.367253E-08
   4.70000  3.310569E-08
   4.72000  3.255198E-08
   4.74000  3.200692E-08
   4.76000  3.147388E-08
   4.78000  3.095826E-08
   4.80000  3.044374E-08
   4.82000  2.993014E-08
   4.84000  2.944761E-08
   4.86000  2.897047E-08
   4.88000  2.850074E-08
   4.90000  2.803725E-08
   4.92000  2.758722E-08
   4.94000  2.713579E-08
   4.96000  2.670208E-08
   4.98000  2.628029E-08
   5.00000  2.586107E-08
   5.02000  2.545776E-08
   5.04000  2.505144E-08
   5.06000  2.466009E-08
   5.08000  2.427841E-08
   5.10000  2.389759E-08
   5.12000  2.352194E-08
   5.14000  2.316374E-08
   5.16000  2.280484E-08
   5.18000  2.245859E-08
   5.20000  2.211965E-08
   5.22000  2.177562E-08
   5.24000  2.145490E-08
   5.26000  2.112854E-08
   5.28000  2.080832E-08
   5.30000  2.049809E-08
   5.32000  2.019326E-08
   5.34000  1.988992E-08
   5.36000  1.959902E-08
   5.38000  1.930530E-08
   5.40000  1.902698E-08
   5.42000  1.874897E-08
   5.44000  1.847111E-08
   5.46000  1.820387E-08
   5.48000  1.794675E-08
   5.50000  1.767866E-08
   5.52000  1.743050E-08
   5.54000  1.718129E-08
   5.56000  1.693741E-08
   5.58000  1.669215E-08
   5.60000  1.645525E-08
   5.62000  1.622635E-08
   5.64000  1.599201E-08
   5.66000  1.577469E-08
   5.68000  1.555154E-08
   5.70000  1.533531E-08
   5.72000  1.511651E-08
   5.74000  1.490992E-08
   5.76000  1.470602E-08
   5.78000  1.450795E-08
   5.80000  1.430330E-08
   5.82000  1.410956E-08
   5.84000  1.392099E-08
   5.86000  1.373403E-08
   5.88000  1.354850E-08
   5.90000  1.336244E-08
   5.92000  1.318263E-08
   5.94000  1.300872E-08
   5.96000  1.283870E-08
   5.98000  1.266114E-08
   6.00000  1.249686E-08
   6.02000  1.233589E-08
   6.04000  1.217175E-08
   6.06000  1.201069E-08
   6.08000  1.185396E-08
   6.10000  1.169682E-08
   6.12000  1.155110E-08
   6.14000  1.140021E-08
   6.16000  1.125284E-08
   6.18000  1.110452E-08
   6.20000  1.096658E-08
   6.22000  1.082735E-08
   6.24000  1.069083E-08
   6.26000  1.055282E-08
   6.28000  1.042023E-08
   6.30000  1.028986E-08
   6.32000  1.016156E-08
   6.34000  1.003514E-08
   6.36000  9.906675E-09
   6.38000  9.786513E-09
   6.40000  9.661181E-09
   6.42000  9.542973E-09
   6.44000  9.423097E-09
   6.46000  9.314251E-09
   6.48000  9.196328E-09
   6.50000  9.088994E-09
   6.52000  8.972562E-09
   6.54000  8.866302E-09
   6.56000  8.757040E-09
   6.58000  8.651403E-09
   6.60000  8.545920E-09
   6.62000  8.446448E-09
   6.64000  8.344156E-09
   6.66000  8.247537E-09
   6.68000  8.144802E-09
   6.70000  8.050570E-09
   6.72000  7.955802E-09
   6.74000  7.863442E-09
   6.76000  7.770367E-09
   6.78000  7.679457E-09
   6.80000  7.587669E-09
   6.82000  7.503257E-09
   6.84000  7.415166E-09
   6.86000  7.328747E-09
   6.88000  7.246401E-09
   6.90000  7.160201E-09
   6.92000  7.080372E-09
   6.94000  6.996761E-09
   6.96000  6.919405E-09
   6.98000  6.837928E-09
   7.00000  6.764993E-09
   7.02000  6.685219E-09
   7.04000  6.611135E-09
   7.06000  6.540118E-09
   7.08000  6.464676E-09
   7.10000  6.394491E-09
   7.12000  6.319806E-09
   7.14000  6.252531E-09
   7.16000  6.180641E-09
   7.18000  6.115840E-09
   7.20000  6.048629E-09
   7.22000  5.979010E-09
   7.24000  5.913769E-09
   7.26000  5.848243E-09
   7.28000  5.782383E-09
   7.30000  5.720505E-09
   7.32000  5.658106E-09
   7.34000  5.595147E-09
   7.36000  5.535810E-09
   7.38000  5.479926E-09
   7.40000  5.423193E-09
   7.42000  5.365581E-09
   7.44000  5.307064E-09
   7.46000  5.251620E-09
   7.48000  5.190850E-09
   7.50000  5.141168E-09
   7.52000  5.082124E-09
   7.54000  5.033840E-09
   7.56000  4.980010E-09
   7.58000  4.924862E-09
   7.60000  4.872106E-09
   7.62000  4.821616E-09
   7.64000  4.773272E-09
   7.66000  4.723356E-09
   7.68000  4.675431E-09
   7.70000  4.629389E-09
   7.72000  4.577616E-09
   7.74000  4.535078E-09
   7.76000  4.486721E-09
   7.78000  4.443902E-09
   7.80000  4.398608E-09
   7.82000  4.354717E-09
   7.84000  4.308855E-09
   7.86000  4.267541E-09
   7.88000  4.224154E-09
   7.90000  4.178078E-09
   7.92000  4.140053E-09
   7.94000  4.099818E-09
   7.96000  4.056728E-09
   7.98000  4.017578E-09
   8.00000  3.976141E-09
   8.02000  3.934751E-09
   8.04000  3.901376E-09
   8.06000  3.864146E-09
   8.08000  3.818654E-09
   8.10000  3.782418E-09
   8.12000  3.747296E-09
   8.14000  3.708183E-09
   8.16000  3.676500E-09
   8.18000  3.640696E-09
   8.20000  3.605826E-09
   8.22000  3.571091E-09
   8.24000  3.534868E-09
   8.26000  3.502930E-09
   8.28000  3.469346E-09
   8.30000  3.433847E-09
   8.32000  3.402647E-09
   8.34000  3.372048E-09
   8.36000  3.337006E-09
   8.38000  3.308432E-09
   8.40000  3.275332E-09
   8.42000  3.245206E-09
   8.44000  3.216269E-09
   8.46000  3.181987E-09
   8.48000  3.156907E-09
   8.50000  3.126439E-09
   8.52000  3.096909E-09
   8.54000  3.069973E-09
   8.56000  3.038281E-09
   8.58000  3.012292E-09
   8.60000  2.986051E-09
   8.62000  2.957635E-09
   8.64000  2.928874E-09
   8.66000  2.903291E-09
   8.68000  2.877206E-09
   8.70000  2.851092E-09
   8.72000  2.826190E-09
   8.74000  2.798465E-09
   8.76000  2.770661E-09
   8.78000  2.745122E-09
   8.80000  2.721503E-09
   8.82000  2.699951E-09
   8.84000  2.675164E-09
   8.86000  2.650302E-09
   8.88000  2.629189E-09
   8.90000  2.602942E-09
   8.92000  2.578378E-09
   8.94000  2.555508E-09
   8.96000  2.536128E-09
   8.98000  2.511544E-09
   9.00000  2.493217E-09
   9.02000  2.466820E-09
   9.04000  2.448434E-09
   9.06000  2.424793E-09
   9.08000  2.404334E-09
   9.10000  2.385049E-09
   9.12000  2.362411E-09
   9.14000  2.340871E-09
   9.16000  2.322283E-09
   9.18000  2.304634E-09
   9.20000  2.283594E-09
   9.22000  2.264400E-09
   9.24000  2.241614E-09
   9.26000  2.225925E-09
   9.28000  2.206556E-09
   9.30000  2.185473E-09
   9.32000  2.169307E-09
   9.34000  2.151353E-09
   9.36000  2.131300E-09
   9.38000  2.114650E-09
   9.40000  2.097429E-09
   9.42000  2.076781E-09
   9.44000  2.062196E-09
   9.46000  2.045709E-09
   9.48000  2.025380E-09
   9.50000  2.011289E-09
   9.52000  1.994820E-09
   9.54000  1.976416E-09
   9.56000  1.959606E-09
   9.58000  1.943302E-09
   9.60000  1.929941E-09
   9.62000  1.913095E-09
   9.64000  1.897630E-09
   9.66000  1.880147E-09
   9.68000  1.865381E-09
   9.70000  1.850953E-09
   9.72000  1.835311E-09
   9.74000  1.819972E-09
   9.76000  1.806705E-09
   9.78000  1.792112E-09
   9.80000  1.777744E-09
   9.82000  1.763348E-09
   9.84000  1.749130E-09
   9.86000  1.735776E-09
   9.88000  1.721577E-09
   9.90000  1.705882E-09
   9.92000  1.693860E-09
   9.94000  1.680263E-09
   9.96000  1.665746E-09
   9.98000  1.651860E-09
   10.0000  1.639245E-09
