Ni Rho=8.902, Sig=0.nm, P=1., E=9000.eV
 Angle (deg), Reflectivity
   0.000000  1.00000
   2.000000E-02  0.986002
   4.000000E-02  0.972079
   6.000000E-02  0.958106
   8.000000E-02  0.943957
   0.100000  0.929495
   0.120000  0.914565
   0.140000  0.898986
   0.160000  0.882539
   0.180000  0.864942
   0.200000  0.845829
   0.220000  0.824693
   0.240000  0.800809
   0.260000  0.773083
   0.280000  0.739755
   0.300000  0.697773
   0.320000  0.641325
   0.340000  0.558399
   0.360000  0.428743
   0.380000  0.274687
   0.400000  0.172381
   0.420000  0.115675
   0.440000  8.221409E-02
   0.460000  6.094002E-02
   0.480000  4.661300E-02
   0.500000  3.653503E-02
   0.520000  2.920220E-02
   0.540000  2.372067E-02
   0.560000  1.953141E-02
   0.580000  1.627003E-02
   0.600000  1.369072E-02
   0.620000  1.162293E-02
   0.640000  9.945425E-03
   0.660000  8.570195E-03
   0.680000  7.432180E-03
   0.700000  6.482543E-03
   0.720000  5.684061E-03
   0.740000  5.008034E-03
   0.760000  4.432061E-03
   0.780000  3.938494E-03
   0.800000  3.513269E-03
   0.820000  3.145103E-03
   0.840000  2.824882E-03
   0.860000  2.545164E-03
   0.880000  2.299848E-03
   0.900000  2.083891E-03
   0.920000  1.893107E-03
   0.940000  1.724006E-03
   0.960000  1.573654E-03
   0.980000  1.439572E-03
   1.00000  1.319667E-03
   1.02000  1.212155E-03
   1.04000  1.115505E-03
   1.06000  1.028419E-03
   1.08000  9.497672E-04
   1.10000  8.785742E-04
   1.12000  8.140022E-04
   1.14000  7.553172E-04
   1.16000  7.018779E-04
   1.18000  6.531291E-04
   1.20000  6.085805E-04
   1.22000  5.677989E-04
   1.24000  5.304076E-04
   1.26000  4.960715E-04
   1.28000  4.644907E-04
   1.30000  4.354031E-04
   1.32000  4.085776E-04
   1.34000  3.837990E-04
   1.36000  3.608854E-04
   1.38000  3.396691E-04
   1.40000  3.200001E-04
   1.42000  3.017430E-04
   1.44000  2.847785E-04
   1.46000  2.689970E-04
   1.48000  2.543017E-04
   1.50000  2.406018E-04
   1.52000  2.278172E-04
   1.54000  2.158749E-04
   1.56000  2.047095E-04
   1.58000  1.942610E-04
   1.60000  1.844743E-04
   1.62000  1.752990E-04
   1.64000  1.666909E-04
   1.66000  1.586064E-04
   1.68000  1.510094E-04
   1.70000  1.438630E-04
   1.72000  1.371371E-04
   1.74000  1.308015E-04
   1.76000  1.248292E-04
   1.78000  1.191947E-04
   1.80000  1.138760E-04
   1.82000  1.088524E-04
   1.84000  1.041040E-04
   1.86000  9.961222E-05
   1.88000  9.536219E-05
   1.90000  9.133678E-05
   1.92000  8.752178E-05
   1.94000  8.390452E-05
   1.96000  8.047375E-05
   1.98000  7.721655E-05
   2.00000  7.412380E-05
   2.02000  7.118376E-05
   2.04000  6.838918E-05
   2.06000  6.573136E-05
   2.08000  6.320080E-05
   2.10000  6.079165E-05
   2.12000  5.849738E-05
   2.14000  5.630955E-05
   2.16000  5.422407E-05
   2.18000  5.223394E-05
   2.20000  5.033536E-05
   2.22000  4.852142E-05
   2.24000  4.678950E-05
   2.26000  4.513418E-05
   2.28000  4.355151E-05
   2.30000  4.203814E-05
   2.32000  4.059020E-05
   2.34000  3.920397E-05
   2.36000  3.787627E-05
   2.38000  3.660501E-05
   2.40000  3.538647E-05
   2.42000  3.421852E-05
   2.44000  3.309828E-05
   2.46000  3.202365E-05
   2.48000  3.099221E-05
   2.50000  3.000233E-05
   2.52000  2.905184E-05
   2.54000  2.813873E-05
   2.56000  2.726121E-05
   2.58000  2.641762E-05
   2.60000  2.560651E-05
   2.62000  2.482693E-05
   2.64000  2.407648E-05
   2.66000  2.335385E-05
   2.68000  2.265866E-05
   2.70000  2.198893E-05
   2.72000  2.134390E-05
   2.74000  2.072246E-05
   2.76000  2.012347E-05
   2.78000  1.954604E-05
   2.80000  1.898902E-05
   2.82000  1.845207E-05
   2.84000  1.793412E-05
   2.86000  1.743374E-05
   2.88000  1.695100E-05
   2.90000  1.648496E-05
   2.92000  1.603470E-05
   2.94000  1.559980E-05
   2.96000  1.517971E-05
   2.98000  1.477353E-05
   3.00000  1.438096E-05
   3.02000  1.400127E-05
   3.04000  1.363422E-05
   3.06000  1.327880E-05
   3.08000  1.293518E-05
   3.10000  1.260275E-05
   3.12000  1.228060E-05
   3.14000  1.196894E-05
   3.16000  1.166713E-05
   3.18000  1.137465E-05
   3.20000  1.109150E-05
   3.22000  1.081686E-05
   3.24000  1.055090E-05
   3.26000  1.029304E-05
   3.28000  1.004299E-05
   3.30000  9.800444E-06
   3.32000  9.565248E-06
   3.34000  9.337106E-06
   3.36000  9.115692E-06
   3.38000  8.900930E-06
   3.40000  8.692212E-06
   3.42000  8.489782E-06
   3.44000  8.293232E-06
   3.46000  8.102172E-06
   3.48000  7.916767E-06
   3.50000  7.736639E-06
   3.52000  7.561602E-06
   3.54000  7.391478E-06
   3.56000  7.225938E-06
   3.58000  7.065220E-06
   3.60000  6.908999E-06
   3.62000  6.757044E-06
   3.64000  6.608986E-06
   3.66000  6.465285E-06
   3.68000  6.325356E-06
   3.70000  6.189356E-06
   3.72000  6.056875E-06
   3.74000  5.927792E-06
   3.76000  5.802275E-06
   3.78000  5.680056E-06
   3.80000  5.560910E-06
   3.82000  5.445123E-06
   3.84000  5.332192E-06
   3.86000  5.222277E-06
   3.88000  5.115047E-06
   3.90000  5.010758E-06
   3.92000  4.908741E-06
   3.94000  4.809618E-06
   3.96000  4.713059E-06
   3.98000  4.618651E-06
   4.00000  4.526881E-06
   4.02000  4.437220E-06
   4.04000  4.349820E-06
   4.06000  4.264301E-06
   4.08000  4.181220E-06
   4.10000  4.100103E-06
   4.12000  4.020866E-06
   4.14000  3.943564E-06
   4.16000  3.868054E-06
   4.18000  3.794451E-06
   4.20000  3.722502E-06
   4.22000  3.652376E-06
   4.24000  3.583801E-06
   4.26000  3.516838E-06
   4.28000  3.451333E-06
   4.30000  3.387530E-06
   4.32000  3.325093E-06
   4.34000  3.264086E-06
   4.36000  3.204497E-06
   4.38000  3.146368E-06
   4.40000  3.089444E-06
   4.42000  3.033788E-06
   4.44000  2.979432E-06
   4.46000  2.926338E-06
   4.48000  2.874308E-06
   4.50000  2.823534E-06
   4.52000  2.773853E-06
   4.54000  2.725142E-06
   4.56000  2.677588E-06
   4.58000  2.631097E-06
   4.60000  2.585547E-06
   4.62000  2.541092E-06
   4.64000  2.497579E-06
   4.66000  2.454815E-06
   4.68000  2.413086E-06
   4.70000  2.372253E-06
   4.72000  2.332293E-06
   4.74000  2.293148E-06
   4.76000  2.254827E-06
   4.78000  2.217359E-06
   4.80000  2.180588E-06
   4.82000  2.144496E-06
   4.84000  2.109319E-06
   4.86000  2.074825E-06
   4.88000  2.041016E-06
   4.90000  2.007868E-06
   4.92000  1.975425E-06
   4.94000  1.943548E-06
   4.96000  1.912385E-06
   4.98000  1.881873E-06
   5.00000  1.851920E-06
   5.02000  1.822625E-06
   5.04000  1.793817E-06
   5.06000  1.765635E-06
   5.08000  1.738023E-06
   5.10000  1.710894E-06
   5.12000  1.684275E-06
   5.14000  1.658258E-06
   5.16000  1.632679E-06
   5.18000  1.607640E-06
   5.20000  1.583087E-06
   5.22000  1.558905E-06
   5.24000  1.535324E-06
   5.26000  1.512091E-06
   5.28000  1.489297E-06
   5.30000  1.466964E-06
   5.32000  1.445047E-06
   5.34000  1.423503E-06
   5.36000  1.402417E-06
   5.38000  1.381651E-06
   5.40000  1.361353E-06
   5.42000  1.341388E-06
   5.44000  1.321748E-06
   5.46000  1.302512E-06
   5.48000  1.283670E-06
   5.50000  1.265038E-06
   5.52000  1.246869E-06
   5.54000  1.228981E-06
   5.56000  1.211420E-06
   5.58000  1.194125E-06
   5.60000  1.177171E-06
   5.62000  1.160550E-06
   5.64000  1.144142E-06
   5.66000  1.128132E-06
   5.68000  1.112321E-06
   5.70000  1.096812E-06
   5.72000  1.081520E-06
   5.74000  1.066564E-06
   5.76000  1.051860E-06
   5.78000  1.037428E-06
   5.80000  1.023160E-06
   5.82000  1.009199E-06
   5.84000  9.954911E-07
   5.86000  9.820030E-07
   5.88000  9.687291E-07
   5.90000  9.556481E-07
   5.92000  9.428138E-07
   5.94000  9.302188E-07
   5.96000  9.178426E-07
   5.98000  9.055855E-07
   6.00000  8.936186E-07
   6.02000  8.818546E-07
   6.04000  8.702359E-07
   6.06000  8.588112E-07
   6.08000  8.475879E-07
   6.10000  8.365230E-07
   6.12000  8.257126E-07
   6.14000  8.150142E-07
   6.16000  8.044979E-07
   6.18000  7.941231E-07
   6.20000  7.839822E-07
   6.22000  7.739742E-07
   6.24000  7.641302E-07
   6.26000  7.544119E-07
   6.28000  7.448749E-07
   6.30000  7.354898E-07
   6.32000  7.262526E-07
   6.34000  7.171594E-07
   6.36000  7.081748E-07
   6.38000  6.993833E-07
   6.40000  6.906697E-07
   6.42000  6.821343E-07
   6.44000  6.737018E-07
   6.46000  6.654764E-07
   6.48000  6.572872E-07
   6.50000  6.492971E-07
   6.52000  6.413390E-07
   6.54000  6.335725E-07
   6.56000  6.258852E-07
   6.58000  6.183308E-07
   6.60000  6.108783E-07
   6.62000  6.035750E-07
   6.64000  5.963450E-07
   6.66000  5.892579E-07
   6.68000  5.822131E-07
   6.70000  5.753315E-07
   6.72000  5.685356E-07
   6.74000  5.618486E-07
   6.76000  5.552427E-07
   6.78000  5.487405E-07
   6.80000  5.423149E-07
   6.82000  5.360338E-07
   6.84000  5.298030E-07
   6.86000  5.236660E-07
   6.88000  5.176413E-07
   6.90000  5.116613E-07
   6.92000  5.058103E-07
   6.94000  5.000020E-07
   6.96000  4.943193E-07
   6.98000  4.886738E-07
   7.00000  4.831705E-07
   7.02000  4.776792E-07
   7.04000  4.723038E-07
   7.06000  4.670212E-07
   7.08000  4.617674E-07
   7.10000  4.566225E-07
   7.12000  4.515035E-07
   7.14000  4.465093E-07
   7.16000  4.415380E-07
   7.18000  4.366868E-07
   7.20000  4.318749E-07
   7.22000  4.271014E-07
   7.24000  4.224222E-07
   7.26000  4.177973E-07
   7.28000  4.132252E-07
   7.30000  4.087414E-07
   7.32000  4.043072E-07
   7.34000  3.999212E-07
   7.36000  3.956179E-07
   7.38000  3.913948E-07
   7.40000  3.872151E-07
   7.42000  3.830777E-07
   7.44000  3.789816E-07
   7.46000  3.749593E-07
   7.48000  3.709399E-07
   7.50000  3.670599E-07
   7.52000  3.631473E-07
   7.54000  3.593700E-07
   7.56000  3.555906E-07
   7.58000  3.518439E-07
   7.60000  3.481602E-07
   7.62000  3.445379E-07
   7.64000  3.409753E-07
   7.66000  3.374404E-07
   7.68000  3.339627E-07
   7.70000  3.305405E-07
   7.72000  3.271094E-07
   7.74000  3.237942E-07
   7.76000  3.204683E-07
   7.78000  3.172261E-07
   7.80000  3.139999E-07
   7.82000  3.108218E-07
   7.84000  3.076627E-07
   7.86000  3.045770E-07
   7.88000  3.015084E-07
   7.90000  2.984514E-07
   7.92000  2.954955E-07
   7.94000  2.925540E-07
   7.96000  2.896212E-07
   7.98000  2.867535E-07
   8.00000  2.838981E-07
   8.02000  2.810744E-07
   8.04000  2.783484E-07
   8.06000  2.756204E-07
   8.08000  2.728528E-07
   8.10000  2.701922E-07
   8.12000  2.675697E-07
   8.14000  2.649423E-07
   8.16000  2.624051E-07
   8.18000  2.598612E-07
   8.20000  2.573522E-07
   8.22000  2.548711E-07
   8.24000  2.524041E-07
   8.26000  2.499990E-07
   8.28000  2.476059E-07
   8.30000  2.452219E-07
   8.32000  2.428991E-07
   8.34000  2.406057E-07
   8.36000  2.382995E-07
   8.38000  2.360712E-07
   8.40000  2.338287E-07
   8.42000  2.316342E-07
   8.44000  2.294727E-07
   8.46000  2.272889E-07
   8.48000  2.252045E-07
   8.50000  2.230968E-07
   8.52000  2.210187E-07
   8.54000  2.189835E-07
   8.56000  2.169296E-07
   8.58000  2.149442E-07
   8.60000  2.129772E-07
   8.62000  2.110120E-07
   8.64000  2.090640E-07
   8.66000  2.071620E-07
   8.68000  2.052753E-07
   8.70000  2.034073E-07
   8.72000  2.015683E-07
   8.74000  1.997243E-07
   8.76000  1.978978E-07
   8.78000  1.961085E-07
   8.80000  1.943529E-07
   8.82000  1.926324E-07
   8.84000  1.909020E-07
   8.86000  1.891881E-07
   8.88000  1.875224E-07
   8.90000  1.858304E-07
   8.92000  1.841688E-07
   8.94000  1.825377E-07
   8.96000  1.809518E-07
   8.98000  1.793381E-07
   9.00000  1.777923E-07
   9.02000  1.761943E-07
   9.04000  1.746786E-07
   9.06000  1.731338E-07
   9.08000  1.716303E-07
   9.10000  1.701513E-07
   9.12000  1.686585E-07
   9.14000  1.671892E-07
   9.16000  1.657585E-07
   9.18000  1.643496E-07
   9.20000  1.629258E-07
   9.22000  1.615309E-07
   9.24000  1.601193E-07
   9.26000  1.587802E-07
   9.28000  1.574232E-07
   9.30000  1.560646E-07
   9.32000  1.547599E-07
   9.34000  1.534526E-07
   9.36000  1.521401E-07
   9.38000  1.508681E-07
   9.40000  1.496034E-07
   9.42000  1.483217E-07
   9.44000  1.471026E-07
   9.46000  1.458790E-07
   9.48000  1.446347E-07
   9.50000  1.434538E-07
   9.52000  1.422642E-07
   9.54000  1.410692E-07
   9.56000  1.398985E-07
   9.58000  1.387426E-07
   9.60000  1.376220E-07
   9.62000  1.364826E-07
   9.64000  1.353651E-07
   9.66000  1.342408E-07
   9.68000  1.331494E-07
   9.70000  1.320707E-07
   9.72000  1.309916E-07
   9.74000  1.299247E-07
   9.76000  1.288847E-07
   9.78000  1.278432E-07
   9.80000  1.268127E-07
   9.82000  1.257913E-07
   9.84000  1.247805E-07
   9.86000  1.237859E-07
   9.88000  1.227930E-07
   9.90000  1.217965E-07
   9.92000  1.208393E-07
   9.94000  1.198776E-07
   9.96000  1.189166E-07
   9.98000  1.179692E-07
   10.0000  1.170407E-07
