Ni Rho=8.902, Sig=0.nm, P=1., E=25000.eV
 Angle (deg), Reflectivity
   0.000000  1.00000
   2.000000E-02  0.993934
   4.000000E-02  0.987491
   6.000000E-02  0.980110
   8.000000E-02  0.970761
   0.100000  0.956873
   0.120000  0.927647
   0.140000  0.414782
   0.160000  0.100512
   0.180000  4.505245E-02
   0.200000  2.448538E-02
   0.220000  1.479939E-02
   0.240000  9.593982E-03
   0.260000  6.542633E-03
   0.280000  4.638268E-03
   0.300000  3.391435E-03
   0.320000  2.543404E-03
   0.340000  1.948346E-03
   0.360000  1.519765E-03
   0.380000  1.204145E-03
   0.400000  9.672086E-04
   0.420000  7.863294E-04
   0.440000  6.461882E-04
   0.460000  5.361662E-04
   0.480000  4.487631E-04
   0.500000  3.785857E-04
   0.520000  3.216924E-04
   0.540000  2.751561E-04
   0.560000  2.367838E-04
   0.580000  2.049076E-04
   0.600000  1.782440E-04
   0.620000  1.557994E-04
   0.640000  1.367936E-04
   0.660000  1.206113E-04
   0.680000  1.067611E-04
   0.700000  9.485052E-05
   0.720000  8.456057E-05
   0.740000  7.563362E-05
   0.760000  6.785735E-05
   0.780000  6.105901E-05
   0.800000  5.509317E-05
   0.820000  4.983978E-05
   0.840000  4.519977E-05
   0.860000  4.108870E-05
   0.880000  3.743597E-05
   0.900000  3.418096E-05
   0.920000  3.127249E-05
   0.940000  2.866780E-05
   0.960000  2.632952E-05
   0.980000  2.422498E-05
   1.00000  2.232711E-05
   1.02000  2.061191E-05
   1.04000  1.905799E-05
   1.06000  1.764863E-05
   1.08000  1.636739E-05
   1.10000  1.520020E-05
   1.12000  1.413555E-05
   1.14000  1.316272E-05
   1.16000  1.227200E-05
   1.18000  1.145560E-05
   1.20000  1.070619E-05
   1.22000  1.001693E-05
   1.24000  9.382420E-06
   1.26000  8.797569E-06
   1.28000  8.257440E-06
   1.30000  7.758125E-06
   1.32000  7.296393E-06
   1.34000  6.868128E-06
   1.36000  6.471031E-06
   1.38000  6.102286E-06
   1.40000  5.759478E-06
   1.42000  5.440321E-06
   1.44000  5.143036E-06
   1.46000  4.865778E-06
   1.48000  4.607152E-06
   1.50000  4.365406E-06
   1.52000  4.139275E-06
   1.54000  3.927554E-06
   1.56000  3.729218E-06
   1.58000  3.543310E-06
   1.60000  3.368848E-06
   1.62000  3.204974E-06
   1.64000  3.051057E-06
   1.66000  2.906143E-06
   1.68000  2.769865E-06
   1.70000  2.641349E-06
   1.72000  2.520309E-06
   1.74000  2.406128E-06
   1.76000  2.298344E-06
   1.78000  2.196434E-06
   1.80000  2.100138E-06
   1.82000  2.009124E-06
   1.84000  1.923006E-06
   1.86000  1.841389E-06
   1.88000  1.764206E-06
   1.90000  1.690960E-06
   1.92000  1.621397E-06
   1.94000  1.555364E-06
   1.96000  1.492776E-06
   1.98000  1.433220E-06
   2.00000  1.376708E-06
   2.02000  1.322800E-06
   2.04000  1.271593E-06
   2.06000  1.222911E-06
   2.08000  1.176395E-06
   2.10000  1.132127E-06
   2.12000  1.090034E-06
   2.14000  1.049727E-06
   2.16000  1.011363E-06
   2.18000  9.746564E-07
   2.20000  9.397107E-07
   2.22000  9.061666E-07
   2.24000  8.742178E-07
   2.26000  8.436357E-07
   2.28000  8.143642E-07
   2.30000  7.863984E-07
   2.32000  7.596361E-07
   2.34000  7.339655E-07
   2.36000  7.093297E-07
   2.38000  6.857959E-07
   2.40000  6.631879E-07
   2.42000  6.415297E-07
   2.44000  6.207212E-07
   2.46000  6.007521E-07
   2.48000  5.815552E-07
   2.50000  5.631560E-07
   2.52000  5.454912E-07
   2.54000  5.285066E-07
   2.56000  5.121651E-07
   2.58000  4.964390E-07
   2.60000  4.813155E-07
   2.62000  4.668422E-07
   2.64000  4.528567E-07
   2.66000  4.393371E-07
   2.68000  4.263846E-07
   2.70000  4.138686E-07
   2.72000  4.018195E-07
   2.74000  3.902143E-07
   2.76000  3.790172E-07
   2.78000  3.682236E-07
   2.80000  3.577850E-07
   2.82000  3.477587E-07
   2.84000  3.380971E-07
   2.86000  3.286977E-07
   2.88000  3.196602E-07
   2.90000  3.109417E-07
   2.92000  3.024972E-07
   2.94000  2.943446E-07
   2.96000  2.864864E-07
   2.98000  2.788648E-07
   3.00000  2.715062E-07
   3.02000  2.643768E-07
   3.04000  2.575024E-07
   3.06000  2.508015E-07
   3.08000  2.443560E-07
   3.10000  2.381342E-07
   3.12000  2.320605E-07
   3.14000  2.262124E-07
   3.16000  2.205479E-07
   3.18000  2.150413E-07
   3.20000  2.097339E-07
   3.22000  2.045534E-07
   3.24000  1.995606E-07
   3.26000  1.947147E-07
   3.28000  1.900094E-07
   3.30000  1.854390E-07
   3.32000  1.810126E-07
   3.34000  1.767218E-07
   3.36000  1.725508E-07
   3.38000  1.685184E-07
   3.40000  1.645679E-07
   3.42000  1.607595E-07
   3.44000  1.570623E-07
   3.46000  1.534466E-07
   3.48000  1.499586E-07
   3.50000  1.465683E-07
   3.52000  1.432718E-07
   3.54000  1.400650E-07
   3.56000  1.369223E-07
   3.58000  1.338957E-07
   3.60000  1.309586E-07
   3.62000  1.280969E-07
   3.64000  1.252761E-07
   3.66000  1.225765E-07
   3.68000  1.199329E-07
   3.70000  1.173819E-07
   3.72000  1.148815E-07
   3.74000  1.124286E-07
   3.76000  1.100604E-07
   3.78000  1.077524E-07
   3.80000  1.054862E-07
   3.82000  1.033134E-07
   3.84000  1.011759E-07
   3.86000  9.910692E-08
   3.88000  9.707170E-08
   3.90000  9.511588E-08
   3.92000  9.315679E-08
   3.94000  9.129045E-08
   3.96000  8.948051E-08
   3.98000  8.767841E-08
   4.00000  8.596075E-08
   4.02000  8.426215E-08
   4.04000  8.261223E-08
   4.06000  8.096575E-08
   4.08000  7.940775E-08
   4.10000  7.787975E-08
   4.12000  7.637699E-08
   4.14000  7.491426E-08
   4.16000  7.347789E-08
   4.18000  7.209053E-08
   4.20000  7.072293E-08
   4.22000  6.940480E-08
   4.24000  6.810394E-08
   4.26000  6.683452E-08
   4.28000  6.558042E-08
   4.30000  6.438080E-08
   4.32000  6.319407E-08
   4.34000  6.203397E-08
   4.36000  6.090375E-08
   4.38000  5.981342E-08
   4.40000  5.873207E-08
   4.42000  5.767305E-08
   4.44000  5.664476E-08
   4.46000  5.564588E-08
   4.48000  5.465288E-08
   4.50000  5.369619E-08
   4.52000  5.275697E-08
   4.54000  5.182160E-08
   4.56000  5.091934E-08
   4.58000  5.004053E-08
   4.60000  4.917165E-08
   4.62000  4.833700E-08
   4.64000  4.751846E-08
   4.66000  4.669226E-08
   4.68000  4.590078E-08
   4.70000  4.512773E-08
   4.72000  4.437236E-08
   4.74000  4.362936E-08
   4.76000  4.290263E-08
   4.78000  4.219839E-08
   4.80000  4.149756E-08
   4.82000  4.079988E-08
   4.84000  4.014047E-08
   4.86000  3.948933E-08
   4.88000  3.884875E-08
   4.90000  3.821733E-08
   4.92000  3.760345E-08
   4.94000  3.698971E-08
   4.96000  3.639840E-08
   4.98000  3.582269E-08
   5.00000  3.525165E-08
   5.02000  3.470079E-08
   5.04000  3.414799E-08
   5.06000  3.361422E-08
   5.08000  3.309325E-08
   5.10000  3.257474E-08
   5.12000  3.206370E-08
   5.14000  3.157444E-08
   5.16000  3.108572E-08
   5.18000  3.061312E-08
   5.20000  3.015036E-08
   5.22000  2.968292E-08
   5.24000  2.924396E-08
   5.26000  2.879962E-08
   5.28000  2.836366E-08
   5.30000  2.794050E-08
   5.32000  2.752481E-08
   5.34000  2.711195E-08
   5.36000  2.671472E-08
   5.38000  2.631526E-08
   5.40000  2.593481E-08
   5.42000  2.555574E-08
   5.44000  2.517786E-08
   5.46000  2.481332E-08
   5.48000  2.446158E-08
   5.50000  2.409795E-08
   5.52000  2.375850E-08
   5.54000  2.341872E-08
   5.56000  2.308603E-08
   5.58000  2.275259E-08
   5.60000  2.242975E-08
   5.62000  2.211705E-08
   5.64000  2.179881E-08
   5.66000  2.150123E-08
   5.68000  2.119761E-08
   5.70000  2.090282E-08
   5.72000  2.060576E-08
   5.74000  2.032368E-08
   5.76000  2.004544E-08
   5.78000  1.977472E-08
   5.80000  1.949697E-08
   5.82000  1.923263E-08
   5.84000  1.897497E-08
   5.86000  1.871983E-08
   5.88000  1.846699E-08
   5.90000  1.821413E-08
   5.92000  1.796917E-08
   5.94000  1.773168E-08
   5.96000  1.749932E-08
   5.98000  1.725871E-08
   6.00000  1.703414E-08
   6.02000  1.681400E-08
   6.04000  1.659068E-08
   6.06000  1.637149E-08
   6.08000  1.615784E-08
   6.10000  1.594422E-08
   6.12000  1.574443E-08
   6.14000  1.553909E-08
   6.16000  1.533831E-08
   6.18000  1.513689E-08
   6.20000  1.494806E-08
   6.22000  1.475814E-08
   6.24000  1.457184E-08
   6.26000  1.438422E-08
   6.28000  1.420334E-08
   6.30000  1.402548E-08
   6.32000  1.385043E-08
   6.34000  1.367798E-08
   6.36000  1.350352E-08
   6.38000  1.333914E-08
   6.40000  1.316910E-08
   6.42000  1.300774E-08
   6.44000  1.284479E-08
   6.46000  1.269508E-08
   6.48000  1.253512E-08
   6.50000  1.238786E-08
   6.52000  1.223031E-08
   6.54000  1.208497E-08
   6.56000  1.193644E-08
   6.58000  1.179246E-08
   6.60000  1.164898E-08
   6.62000  1.151282E-08
   6.64000  1.137366E-08
   6.66000  1.124142E-08
   6.68000  1.110234E-08
   6.70000  1.097346E-08
   6.72000  1.084424E-08
   6.74000  1.071810E-08
   6.76000  1.059139E-08
   6.78000  1.046748E-08
   6.80000  1.034281E-08
   6.82000  1.022700E-08
   6.84000  1.010714E-08
   6.86000  9.989487E-09
   6.88000  9.876829E-09
   6.90000  9.759909E-09
   6.92000  9.650661E-09
   6.94000  9.537228E-09
   6.96000  9.431323E-09
   6.98000  9.320830E-09
   7.00000  9.220527E-09
   7.02000  9.112455E-09
   7.04000  9.011235E-09
   7.06000  8.913805E-09
   7.08000  8.811413E-09
   7.10000  8.715357E-09
   7.12000  8.614246E-09
   7.14000  8.521979E-09
   7.16000  8.424515E-09
   7.18000  8.335515E-09
   7.20000  8.243885E-09
   7.22000  8.149625E-09
   7.24000  8.060655E-09
   7.26000  7.971527E-09
   7.28000  7.882182E-09
   7.30000  7.797656E-09
   7.32000  7.712688E-09
   7.34000  7.627230E-09
   7.36000  7.546163E-09
   7.38000  7.469285E-09
   7.40000  7.391572E-09
   7.42000  7.312988E-09
   7.44000  7.233497E-09
   7.46000  7.157744E-09
   7.48000  7.075919E-09
   7.50000  7.007183E-09
   7.52000  6.927659E-09
   7.54000  6.860837E-09
   7.56000  6.787677E-09
   7.58000  6.713115E-09
   7.60000  6.641477E-09
   7.62000  6.572617E-09
   7.64000  6.506391E-09
   7.66000  6.438456E-09
   7.68000  6.372971E-09
   7.70000  6.309806E-09
   7.72000  6.240073E-09
   7.74000  6.181241E-09
   7.76000  6.115734E-09
   7.78000  6.056806E-09
   7.80000  5.995103E-09
   7.82000  5.935150E-09
   7.84000  5.873007E-09
   7.86000  5.816283E-09
   7.88000  5.757245E-09
   7.90000  5.695173E-09
   7.92000  5.642604E-09
   7.94000  5.587557E-09
   7.96000  5.529280E-09
   7.98000  5.475699E-09
   8.00000  5.419548E-09
   8.02000  5.363548E-09
   8.04000  5.316999E-09
   8.06000  5.266044E-09
   8.08000  5.205536E-09
   8.10000  5.155925E-09
   8.12000  5.107702E-09
   8.14000  5.054909E-09
   8.16000  5.010877E-09
   8.18000  4.962119E-09
   8.20000  4.914537E-09
   8.22000  4.867194E-09
   8.24000  4.818198E-09
   8.26000  4.774284E-09
   8.28000  4.728527E-09
   8.30000  4.680615E-09
   8.32000  4.637797E-09
   8.34000  4.595758E-09
   8.36000  4.548606E-09
   8.38000  4.509080E-09
   8.40000  4.464344E-09
   8.42000  4.423150E-09
   8.44000  4.383417E-09
   8.46000  4.337512E-09
   8.48000  4.302420E-09
   8.50000  4.261106E-09
   8.52000  4.220952E-09
   8.54000  4.183895E-09
   8.56000  4.141349E-09
   8.58000  4.105527E-09
   8.60000  4.069472E-09
   8.62000  4.030941E-09
   8.64000  3.992070E-09
   8.66000  3.956969E-09
   8.68000  3.921342E-09
   8.70000  3.885740E-09
   8.72000  3.851612E-09
   8.74000  3.814245E-09
   8.76000  3.776842E-09
   8.78000  3.742140E-09
   8.80000  3.709734E-09
   8.82000  3.679797E-09
   8.84000  3.646136E-09
   8.86000  3.612441E-09
   8.88000  3.583174E-09
   8.90000  3.547966E-09
   8.92000  3.514773E-09
   8.94000  3.483608E-09
   8.96000  3.456567E-09
   8.98000  3.423500E-09
   9.00000  3.397785E-09
   9.02000  3.362697E-09
   9.04000  3.337008E-09
   9.06000  3.305231E-09
   9.08000  3.277213E-09
   9.10000  3.250613E-09
   9.12000  3.220141E-09
   9.14000  3.190996E-09
   9.16000  3.165340E-09
   9.18000  3.140824E-09
   9.20000  3.112389E-09
   9.22000  3.086154E-09
   9.24000  3.055764E-09
   9.26000  3.033701E-09
   9.28000  3.007383E-09
   9.30000  2.979102E-09
   9.32000  2.956602E-09
   9.34000  2.932052E-09
   9.36000  2.905090E-09
   9.38000  2.882138E-09
   9.40000  2.858558E-09
   9.42000  2.831012E-09
   9.44000  2.810582E-09
   9.46000  2.787967E-09
   9.48000  2.760901E-09
   9.50000  2.741152E-09
   9.52000  2.718662E-09
   9.54000  2.693947E-09
   9.56000  2.671127E-09
   9.58000  2.648930E-09
   9.60000  2.630203E-09
   9.62000  2.607437E-09
   9.64000  2.586318E-09
   9.66000  2.562873E-09
   9.68000  2.542632E-09
   9.70000  2.522816E-09
   9.72000  2.501612E-09
   9.74000  2.480793E-09
   9.76000  2.462422E-09
   9.78000  2.442533E-09
   9.80000  2.422935E-09
   9.82000  2.403334E-09
   9.84000  2.383967E-09
   9.86000  2.365638E-09
   9.88000  2.346350E-09
   9.90000  2.325342E-09
   9.92000  2.308649E-09
   9.94000  2.290144E-09
   9.96000  2.270592E-09
   9.98000  2.251802E-09
   10.0000  2.234520E-09
