Ni Rho=8.902, Sig=0.nm, P=1., E=19000.eV
 Angle (deg), Reflectivity
   0.000000  1.00000
   2.000000E-02  0.992425
   4.000000E-02  0.984620
   6.000000E-02  0.976247
   8.000000E-02  0.966834
   0.100000  0.955609
   0.120000  0.941064
   0.140000  0.919506
   0.160000  0.877312
   0.180000  0.607363
   0.200000  0.155514
   0.220000  7.341801E-02
   0.240000  4.184262E-02
   0.260000  2.634077E-02
   0.280000  1.768320E-02
   0.300000  1.243035E-02
   0.320000  9.049668E-03
   0.340000  6.774486E-03
   0.360000  5.188271E-03
   0.380000  4.050071E-03
   0.400000  3.213474E-03
   0.420000  2.585858E-03
   0.440000  2.106646E-03
   0.460000  1.735058E-03
   0.480000  1.442974E-03
   0.500000  1.210589E-03
   0.520000  1.023682E-03
   0.540000  8.718649E-04
   0.560000  7.474472E-04
   0.580000  6.446524E-04
   0.600000  5.590840E-04
   0.620000  4.873660E-04
   0.640000  4.268726E-04
   0.660000  3.755464E-04
   0.680000  3.317576E-04
   0.700000  2.942092E-04
   0.720000  2.618561E-04
   0.740000  2.338557E-04
   0.760000  2.095189E-04
   0.780000  1.882846E-04
   0.800000  1.696859E-04
   0.820000  1.533374E-04
   0.840000  1.389204E-04
   0.860000  1.261657E-04
   0.880000  1.148482E-04
   0.900000  1.047762E-04
   0.920000  9.578781E-05
   0.940000  8.774682E-05
   0.960000  8.053545E-05
   0.980000  7.405175E-05
   1.00000  6.820993E-05
   1.02000  6.293483E-05
   1.04000  5.816042E-05
   1.06000  5.383261E-05
   1.08000  4.990108E-05
   1.10000  4.632236E-05
   1.12000  4.305992E-05
   1.14000  4.008054E-05
   1.16000  3.735458E-05
   1.18000  3.485725E-05
   1.20000  3.256584E-05
   1.22000  3.045969E-05
   1.24000  2.852162E-05
   1.26000  2.673582E-05
   1.28000  2.508756E-05
   1.30000  2.356453E-05
   1.32000  2.215619E-05
   1.34000  2.085098E-05
   1.36000  1.964094E-05
   1.38000  1.851763E-05
   1.40000  1.747366E-05
   1.42000  1.650216E-05
   1.44000  1.559743E-05
   1.46000  1.475392E-05
   1.48000  1.396707E-05
   1.50000  1.323190E-05
   1.52000  1.254446E-05
   1.54000  1.190104E-05
   1.56000  1.129843E-05
   1.58000  1.073363E-05
   1.60000  1.020373E-05
   1.62000  9.706117E-06
   1.64000  9.238696E-06
   1.66000  8.798881E-06
   1.68000  8.385181E-06
   1.70000  7.995300E-06
   1.72000  7.628024E-06
   1.74000  7.281619E-06
   1.76000  6.954680E-06
   1.78000  6.645735E-06
   1.80000  6.353815E-06
   1.82000  6.077870E-06
   1.84000  5.816786E-06
   1.86000  5.569470E-06
   1.88000  5.335430E-06
   1.90000  5.113448E-06
   1.92000  4.902764E-06
   1.94000  4.702807E-06
   1.96000  4.513151E-06
   1.98000  4.332819E-06
   2.00000  4.161591E-06
   2.02000  3.998475E-06
   2.04000  3.843430E-06
   2.06000  3.695956E-06
   2.08000  3.555248E-06
   2.10000  3.421274E-06
   2.12000  3.293751E-06
   2.14000  3.171853E-06
   2.16000  3.055715E-06
   2.18000  2.944708E-06
   2.20000  2.838892E-06
   2.22000  2.737528E-06
   2.24000  2.640844E-06
   2.26000  2.548343E-06
   2.28000  2.459833E-06
   2.30000  2.375217E-06
   2.32000  2.294232E-06
   2.34000  2.216608E-06
   2.36000  2.142169E-06
   2.38000  2.070966E-06
   2.40000  2.002624E-06
   2.42000  1.937124E-06
   2.44000  1.874235E-06
   2.46000  1.813882E-06
   2.48000  1.755899E-06
   2.50000  1.700279E-06
   2.52000  1.646867E-06
   2.54000  1.595525E-06
   2.56000  1.546147E-06
   2.58000  1.498645E-06
   2.60000  1.452961E-06
   2.62000  1.409142E-06
   2.64000  1.366873E-06
   2.66000  1.326084E-06
   2.68000  1.286921E-06
   2.70000  1.249129E-06
   2.72000  1.212733E-06
   2.74000  1.177670E-06
   2.76000  1.143851E-06
   2.78000  1.111246E-06
   2.80000  1.079750E-06
   2.82000  1.049440E-06
   2.84000  1.020215E-06
   2.86000  9.918765E-07
   2.88000  9.645811E-07
   2.90000  9.382370E-07
   2.92000  9.127496E-07
   2.94000  8.881348E-07
   2.96000  8.643818E-07
   2.98000  8.413766E-07
   3.00000  8.191516E-07
   3.02000  7.976353E-07
   3.04000  7.768601E-07
   3.06000  7.566731E-07
   3.08000  7.372051E-07
   3.10000  7.183910E-07
   3.12000  7.000889E-07
   3.14000  6.824239E-07
   3.16000  6.653136E-07
   3.18000  6.487048E-07
   3.20000  6.326606E-07
   3.22000  6.170474E-07
   3.24000  6.019629E-07
   3.26000  5.873290E-07
   3.28000  5.731277E-07
   3.30000  5.593420E-07
   3.32000  5.459814E-07
   3.34000  5.330251E-07
   3.36000  5.204395E-07
   3.38000  5.082517E-07
   3.40000  4.963575E-07
   3.42000  4.848564E-07
   3.44000  4.736896E-07
   3.46000  4.628004E-07
   3.48000  4.522647E-07
   3.50000  4.420257E-07
   3.52000  4.320724E-07
   3.54000  4.223937E-07
   3.56000  4.129408E-07
   3.58000  4.038005E-07
   3.60000  3.949230E-07
   3.62000  3.862798E-07
   3.64000  3.778080E-07
   3.66000  3.696437E-07
   3.68000  3.616706E-07
   3.70000  3.539490E-07
   3.72000  3.464033E-07
   3.74000  3.390251E-07
   3.76000  3.318765E-07
   3.78000  3.249121E-07
   3.80000  3.180977E-07
   3.82000  3.115204E-07
   3.84000  3.050770E-07
   3.86000  2.988228E-07
   3.88000  2.926954E-07
   3.90000  2.867720E-07
   3.92000  2.809070E-07
   3.94000  2.752651E-07
   3.96000  2.697815E-07
   3.98000  2.643699E-07
   4.00000  2.591616E-07
   4.02000  2.540414E-07
   4.04000  2.490592E-07
   4.06000  2.441348E-07
   4.08000  2.394143E-07
   4.10000  2.347948E-07
   4.12000  2.302665E-07
   4.14000  2.258538E-07
   4.16000  2.215316E-07
   4.18000  2.173380E-07
   4.20000  2.132210E-07
   4.22000  2.092308E-07
   4.24000  2.053106E-07
   4.26000  2.014836E-07
   4.28000  1.977210E-07
   4.30000  1.940897E-07
   4.32000  1.905163E-07
   4.34000  1.870238E-07
   4.36000  1.836168E-07
   4.38000  1.803120E-07
   4.40000  1.770546E-07
   4.42000  1.738670E-07
   4.44000  1.707630E-07
   4.46000  1.677394E-07
   4.48000  1.647547E-07
   4.50000  1.618608E-07
   4.52000  1.590244E-07
   4.54000  1.562210E-07
   4.56000  1.535009E-07
   4.58000  1.508465E-07
   4.60000  1.482338E-07
   4.62000  1.457042E-07
   4.64000  1.432257E-07
   4.66000  1.407566E-07
   4.68000  1.383696E-07
   4.70000  1.360361E-07
   4.72000  1.337542E-07
   4.74000  1.315141E-07
   4.76000  1.293220E-07
   4.78000  1.271884E-07
   4.80000  1.250796E-07
   4.82000  1.229946E-07
   4.84000  1.209941E-07
   4.86000  1.190254E-07
   4.88000  1.170921E-07
   4.90000  1.151913E-07
   4.92000  1.133373E-07
   4.94000  1.114994E-07
   4.96000  1.097159E-07
   4.98000  1.079746E-07
   5.00000  1.062562E-07
   5.02000  1.045871E-07
   5.04000  1.029288E-07
   5.06000  1.013173E-07
   5.08000  9.974136E-08
   5.10000  9.818279E-08
   5.12000  9.664999E-08
   5.14000  9.516750E-08
   5.16000  9.369812E-08
   5.18000  9.226865E-08
   5.20000  9.086791E-08
   5.22000  8.947043E-08
   5.24000  8.813350E-08
   5.26000  8.679811E-08
   5.28000  8.548788E-08
   5.30000  8.421026E-08
   5.32000  8.295575E-08
   5.34000  8.171609E-08
   5.36000  8.051325E-08
   5.38000  7.931601E-08
   5.40000  7.816107E-08
   5.42000  7.701759E-08
   5.44000  7.588505E-08
   5.46000  7.478437E-08
   5.48000  7.371436E-08
   5.50000  7.263204E-08
   5.52000  7.159981E-08
   5.54000  7.057496E-08
   5.56000  6.957021E-08
   5.58000  6.857177E-08
   5.60000  6.759916E-08
   5.62000  6.665146E-08
   5.64000  6.570129E-08
   5.66000  6.479395E-08
   5.68000  6.388297E-08
   5.70000  6.299403E-08
   5.72000  6.210772E-08
   5.74000  6.125381E-08
   5.76000  6.041286E-08
   5.78000  5.959111E-08
   5.80000  5.876320E-08
   5.82000  5.796449E-08
   5.84000  5.718314E-08
   5.86000  5.641184E-08
   5.88000  5.565009E-08
   5.90000  5.489375E-08
   5.92000  5.415644E-08
   5.94000  5.343734E-08
   5.96000  5.273224E-08
   5.98000  5.201786E-08
   6.00000  5.133625E-08
   6.02000  5.066713E-08
   6.04000  4.999723E-08
   6.06000  4.933910E-08
   6.08000  4.869516E-08
   6.10000  4.805572E-08
   6.12000  4.744465E-08
   6.14000  4.682821E-08
   6.16000  4.622390E-08
   6.18000  4.562258E-08
   6.20000  4.504716E-08
   6.22000  4.447381E-08
   6.24000  4.391062E-08
   6.26000  4.334895E-08
   6.28000  4.280273E-08
   6.30000  4.226541E-08
   6.32000  4.173655E-08
   6.34000  4.121574E-08
   6.36000  4.069491E-08
   6.38000  4.019497E-08
   6.40000  3.968854E-08
   6.42000  3.920045E-08
   6.44000  3.871282E-08
   6.46000  3.825131E-08
   6.48000  3.777511E-08
   6.50000  3.732399E-08
   6.52000  3.685800E-08
   6.54000  3.641612E-08
   6.56000  3.597159E-08
   6.58000  3.553777E-08
   6.60000  3.510759E-08
   6.62000  3.469283E-08
   6.64000  3.427555E-08
   6.66000  3.387290E-08
   6.68000  3.346094E-08
   6.70000  3.306923E-08
   6.72000  3.267941E-08
   6.74000  3.229738E-08
   6.76000  3.191678E-08
   6.78000  3.154337E-08
   6.80000  3.117096E-08
   6.82000  3.081620E-08
   6.84000  3.045666E-08
   6.86000  3.010314E-08
   6.88000  2.976044E-08
   6.90000  2.941248E-08
   6.92000  2.907990E-08
   6.94000  2.874212E-08
   6.96000  2.841941E-08
   6.98000  2.809072E-08
   7.00000  2.778167E-08
   7.02000  2.746104E-08
   7.04000  2.715418E-08
   7.06000  2.685574E-08
   7.08000  2.655051E-08
   7.10000  2.625807E-08
   7.12000  2.595861E-08
   7.14000  2.567622E-08
   7.16000  2.538651E-08
   7.18000  2.511316E-08
   7.20000  2.483688E-08
   7.22000  2.455766E-08
   7.24000  2.428921E-08
   7.26000  2.402205E-08
   7.28000  2.375604E-08
   7.30000  2.349991E-08
   7.32000  2.324450E-08
   7.34000  2.298969E-08
   7.36000  2.274395E-08
   7.38000  2.250690E-08
   7.40000  2.226979E-08
   7.42000  2.203253E-08
   7.44000  2.179505E-08
   7.46000  2.156539E-08
   7.48000  2.132649E-08
   7.50000  2.111159E-08
   7.52000  2.087924E-08
   7.54000  2.067017E-08
   7.56000  2.045133E-08
   7.58000  2.023125E-08
   7.60000  2.001745E-08
   7.62000  1.980962E-08
   7.64000  1.960752E-08
   7.66000  1.940359E-08
   7.68000  1.920502E-08
   7.70000  1.901157E-08
   7.72000  1.880781E-08
   7.74000  1.862402E-08
   7.76000  1.842970E-08
   7.78000  1.824783E-08
   7.80000  1.806215E-08
   7.82000  1.788051E-08
   7.84000  1.769606E-08
   7.86000  1.752198E-08
   7.88000  1.734483E-08
   7.90000  1.716337E-08
   7.92000  1.699931E-08
   7.94000  1.683187E-08
   7.96000  1.665972E-08
   7.98000  1.649661E-08
   8.00000  1.632991E-08
   8.02000  1.616433E-08
   8.04000  1.601600E-08
   8.06000  1.586085E-08
   8.08000  1.568995E-08
   8.10000  1.553876E-08
   8.12000  1.539079E-08
   8.14000  1.523566E-08
   8.16000  1.509651E-08
   8.18000  1.494993E-08
   8.20000  1.480613E-08
   8.22000  1.466349E-08
   8.24000  1.451872E-08
   8.26000  1.438348E-08
   8.28000  1.424575E-08
   8.30000  1.410498E-08
   8.32000  1.397374E-08
   8.34000  1.384453E-08
   8.36000  1.370711E-08
   8.38000  1.358359E-08
   8.40000  1.345168E-08
   8.42000  1.332655E-08
   8.44000  1.320459E-08
   8.46000  1.307255E-08
   8.48000  1.295988E-08
   8.50000  1.283702E-08
   8.52000  1.271677E-08
   8.54000  1.260248E-08
   8.56000  1.247925E-08
   8.58000  1.236826E-08
   8.60000  1.225743E-08
   8.62000  1.214286E-08
   8.64000  1.202825E-08
   8.66000  1.192072E-08
   8.68000  1.181281E-08
   8.70000  1.170547E-08
   8.72000  1.160121E-08
   8.74000  1.149184E-08
   8.76000  1.138292E-08
   8.78000  1.127918E-08
   8.80000  1.117991E-08
   8.82000  1.108542E-08
   8.84000  1.098493E-08
   8.86000  1.088487E-08
   8.88000  1.079295E-08
   8.90000  1.069119E-08
   8.92000  1.059337E-08
   8.94000  1.049952E-08
   8.96000  1.041326E-08
   8.98000  1.031699E-08
   9.00000  1.023390E-08
   9.02000  1.013497E-08
   9.04000  1.005277E-08
   9.06000  9.960415E-09
   9.08000  9.874992E-09
   9.10000  9.792432E-09
   9.12000  9.703548E-09
   9.14000  9.617362E-09
   9.16000  9.537613E-09
   9.18000  9.460225E-09
   9.20000  9.376414E-09
   9.22000  9.296789E-09
   9.24000  9.210324E-09
   9.26000  9.138669E-09
   9.28000  9.059988E-09
   9.30000  8.978254E-09
   9.32000  8.906900E-09
   9.34000  8.832331E-09
   9.36000  8.753917E-09
   9.38000  8.682795E-09
   9.40000  8.610916E-09
   9.42000  8.532480E-09
   9.44000  8.466716E-09
   9.46000  8.397476E-09
   9.48000  8.320831E-09
   9.50000  8.257190E-09
   9.52000  8.189102E-09
   9.54000  8.117453E-09
   9.56000  8.049392E-09
   9.58000  7.982708E-09
   9.60000  7.922336E-09
   9.62000  7.855245E-09
   9.64000  7.791295E-09
   9.66000  7.723588E-09
   9.68000  7.661722E-09
   9.70000  7.600862E-09
   9.72000  7.537870E-09
   9.74000  7.475809E-09
   9.76000  7.418261E-09
   9.78000  7.358340E-09
   9.80000  7.299181E-09
   9.82000  7.240271E-09
   9.84000  7.182020E-09
   9.86000  7.125818E-09
   9.88000  7.068196E-09
   9.90000  7.007833E-09
   9.92000  6.955196E-09
   9.94000  6.899652E-09
   9.96000  6.842524E-09
   9.98000  6.786950E-09
   10.0000  6.734222E-09
