Ni Rho=8.902, Sig=0.nm, P=1., E=28000.eV
 Angle (deg), Reflectivity
   0.000000  1.00000
   2.000000E-02  0.994474
   4.000000E-02  0.988495
   6.000000E-02  0.981345
   8.000000E-02  0.971468
   0.100000  0.953479
   0.120000  0.840754
   0.140000  0.117390
   0.160000  4.612379E-02
   0.180000  2.335874E-02
   0.200000  1.346018E-02
   0.220000  8.420060E-03
   0.240000  5.582556E-03
   0.260000  3.867412E-03
   0.280000  2.773568E-03
   0.300000  2.045874E-03
   0.320000  1.544859E-03
   0.340000  1.189919E-03
   0.360000  9.323116E-04
   0.380000  7.414115E-04
   0.400000  5.973577E-04
   0.420000  4.869076E-04
   0.440000  4.010183E-04
   0.460000  3.333756E-04
   0.480000  2.794929E-04
   0.500000  2.361274E-04
   0.520000  2.008983E-04
   0.540000  1.720296E-04
   0.560000  1.481871E-04
   0.580000  1.283525E-04
   0.600000  1.117400E-04
   0.620000  9.774005E-05
   0.640000  8.587277E-05
   0.660000  7.575904E-05
   0.680000  6.709544E-05
   0.700000  5.963934E-05
   0.720000  5.319312E-05
   0.740000  4.759720E-05
   0.760000  4.271961E-05
   0.780000  3.845322E-05
   0.800000  3.470733E-05
   0.820000  3.140714E-05
   0.840000  2.849107E-05
   0.860000  2.590637E-05
   0.880000  2.360904E-05
   0.900000  2.156111E-05
   0.920000  1.973052E-05
   0.940000  1.809070E-05
   0.960000  1.661822E-05
   0.980000  1.529252E-05
   1.00000  1.409675E-05
   1.02000  1.301581E-05
   1.04000  1.203620E-05
   1.06000  1.114765E-05
   1.08000  1.033971E-05
   1.10000  9.603494E-06
   1.12000  8.931876E-06
   1.14000  8.318085E-06
   1.16000  7.755970E-06
   1.18000  7.240704E-06
   1.20000  6.767664E-06
   1.22000  6.332502E-06
   1.24000  5.931874E-06
   1.26000  5.562576E-06
   1.28000  5.221443E-06
   1.30000  4.906045E-06
   1.32000  4.614416E-06
   1.34000  4.343826E-06
   1.36000  4.092935E-06
   1.38000  3.859941E-06
   1.40000  3.643318E-06
   1.42000  3.441605E-06
   1.44000  3.253709E-06
   1.46000  3.078453E-06
   1.48000  2.914992E-06
   1.50000  2.762172E-06
   1.52000  2.619205E-06
   1.54000  2.485330E-06
   1.56000  2.359913E-06
   1.58000  2.242357E-06
   1.60000  2.132032E-06
   1.62000  2.028391E-06
   1.64000  1.931060E-06
   1.66000  1.839395E-06
   1.68000  1.753208E-06
   1.70000  1.671904E-06
   1.72000  1.595343E-06
   1.74000  1.523117E-06
   1.76000  1.454934E-06
   1.78000  1.390448E-06
   1.80000  1.329516E-06
   1.82000  1.271934E-06
   1.84000  1.217449E-06
   1.86000  1.165800E-06
   1.88000  1.116979E-06
   1.90000  1.070634E-06
   1.92000  1.026605E-06
   1.94000  9.848060E-07
   1.96000  9.452063E-07
   1.98000  9.075094E-07
   2.00000  8.717553E-07
   2.02000  8.376211E-07
   2.04000  8.052108E-07
   2.06000  7.744093E-07
   2.08000  7.449542E-07
   2.10000  7.169307E-07
   2.12000  6.903021E-07
   2.14000  6.647763E-07
   2.16000  6.404973E-07
   2.18000  6.172527E-07
   2.20000  5.951410E-07
   2.22000  5.738904E-07
   2.24000  5.536688E-07
   2.26000  5.343067E-07
   2.28000  5.157713E-07
   2.30000  4.980702E-07
   2.32000  4.811324E-07
   2.34000  4.648787E-07
   2.36000  4.492732E-07
   2.38000  4.343783E-07
   2.40000  4.200618E-07
   2.42000  4.063507E-07
   2.44000  3.931727E-07
   2.46000  3.805266E-07
   2.48000  3.683652E-07
   2.50000  3.567151E-07
   2.52000  3.455318E-07
   2.54000  3.347778E-07
   2.56000  3.244285E-07
   2.58000  3.144668E-07
   2.60000  3.048875E-07
   2.62000  2.957327E-07
   2.64000  2.868773E-07
   2.66000  2.783079E-07
   2.68000  2.701088E-07
   2.70000  2.621798E-07
   2.72000  2.545482E-07
   2.74000  2.471990E-07
   2.76000  2.401069E-07
   2.78000  2.332710E-07
   2.80000  2.266555E-07
   2.82000  2.203086E-07
   2.84000  2.141950E-07
   2.86000  2.082354E-07
   2.88000  2.025115E-07
   2.90000  1.969913E-07
   2.92000  1.916408E-07
   2.94000  1.864765E-07
   2.96000  1.815022E-07
   2.98000  1.766735E-07
   3.00000  1.720133E-07
   3.02000  1.674962E-07
   3.04000  1.631442E-07
   3.06000  1.588941E-07
   3.08000  1.548123E-07
   3.10000  1.508751E-07
   3.12000  1.470235E-07
   3.14000  1.433204E-07
   3.16000  1.397335E-07
   3.18000  1.362435E-07
   3.20000  1.328844E-07
   3.22000  1.295997E-07
   3.24000  1.264387E-07
   3.26000  1.233698E-07
   3.28000  1.203891E-07
   3.30000  1.174927E-07
   3.32000  1.146887E-07
   3.34000  1.119714E-07
   3.36000  1.093287E-07
   3.38000  1.067765E-07
   3.40000  1.042703E-07
   3.42000  1.018587E-07
   3.44000  9.951773E-08
   3.46000  9.722434E-08
   3.48000  9.501591E-08
   3.50000  9.286916E-08
   3.52000  9.078145E-08
   3.54000  8.875021E-08
   3.56000  8.675534E-08
   3.58000  8.483892E-08
   3.60000  8.298019E-08
   3.62000  8.116821E-08
   3.64000  7.937614E-08
   3.66000  7.766825E-08
   3.68000  7.599310E-08
   3.70000  7.438005E-08
   3.72000  7.279621E-08
   3.74000  7.123935E-08
   3.76000  6.973949E-08
   3.78000  6.827734E-08
   3.80000  6.683875E-08
   3.82000  6.546503E-08
   3.84000  6.411015E-08
   3.86000  6.280091E-08
   3.88000  6.150990E-08
   3.90000  6.027372E-08
   3.92000  5.902681E-08
   3.94000  5.784585E-08
   3.96000  5.670216E-08
   3.98000  5.555729E-08
   4.00000  5.447244E-08
   4.02000  5.339579E-08
   4.04000  5.235112E-08
   4.06000  5.130260E-08
   4.08000  5.031814E-08
   4.10000  4.935137E-08
   4.12000  4.839868E-08
   4.14000  4.747200E-08
   4.16000  4.656063E-08
   4.18000  4.568276E-08
   4.20000  4.481526E-08
   4.22000  4.398195E-08
   4.24000  4.315731E-08
   4.26000  4.235278E-08
   4.28000  4.155567E-08
   4.30000  4.079728E-08
   4.32000  4.004463E-08
   4.34000  3.930879E-08
   4.36000  3.859246E-08
   4.38000  3.790371E-08
   4.40000  3.721808E-08
   4.42000  3.654628E-08
   4.44000  3.589511E-08
   4.46000  3.526363E-08
   4.48000  3.463319E-08
   4.50000  3.402813E-08
   4.52000  3.343353E-08
   4.54000  3.283865E-08
   4.56000  3.226686E-08
   4.58000  3.171057E-08
   4.60000  3.115908E-08
   4.62000  3.063183E-08
   4.64000  3.011446E-08
   4.66000  2.958813E-08
   4.68000  2.908666E-08
   4.70000  2.859713E-08
   4.72000  2.811903E-08
   4.74000  2.764819E-08
   4.76000  2.718779E-08
   4.78000  2.674285E-08
   4.80000  2.629821E-08
   4.82000  2.585374E-08
   4.84000  2.543747E-08
   4.86000  2.502556E-08
   4.88000  2.461989E-08
   4.90000  2.421939E-08
   4.92000  2.383079E-08
   4.94000  2.344029E-08
   4.96000  2.306569E-08
   4.98000  2.270158E-08
   5.00000  2.233932E-08
   5.02000  2.199129E-08
   5.04000  2.163994E-08
   5.06000  2.130199E-08
   5.08000  2.097253E-08
   5.10000  2.064337E-08
   5.12000  2.031853E-08
   5.14000  2.000944E-08
   5.16000  1.969924E-08
   5.18000  1.940035E-08
   5.20000  1.910782E-08
   5.22000  1.881013E-08
   5.24000  1.853368E-08
   5.26000  1.825158E-08
   5.28000  1.797480E-08
   5.30000  1.770690E-08
   5.32000  1.744365E-08
   5.34000  1.718140E-08
   5.36000  1.693035E-08
   5.38000  1.667632E-08
   5.40000  1.643626E-08
   5.42000  1.619614E-08
   5.44000  1.595583E-08
   5.46000  1.572506E-08
   5.48000  1.550339E-08
   5.50000  1.527119E-08
   5.52000  1.505722E-08
   5.54000  1.484197E-08
   5.56000  1.463139E-08
   5.58000  1.441924E-08
   5.60000  1.421458E-08
   5.62000  1.401706E-08
   5.64000  1.381424E-08
   5.66000  1.362696E-08
   5.68000  1.343401E-08
   5.70000  1.324725E-08
   5.72000  1.305784E-08
   5.74000  1.287955E-08
   5.76000  1.270351E-08
   5.78000  1.253267E-08
   5.80000  1.235547E-08
   5.82000  1.218821E-08
   5.84000  1.202551E-08
   5.86000  1.186411E-08
   5.88000  1.170384E-08
   5.90000  1.154285E-08
   5.92000  1.138748E-08
   5.94000  1.123740E-08
   5.96000  1.109074E-08
   5.98000  1.093688E-08
   6.00000  1.079517E-08
   6.02000  1.065637E-08
   6.04000  1.051444E-08
   6.06000  1.037521E-08
   6.08000  1.023981E-08
   6.10000  1.010388E-08
   6.12000  9.978392E-09
   6.14000  9.847943E-09
   6.16000  9.720600E-09
   6.18000  9.592219E-09
   6.20000  9.473346E-09
   6.22000  9.353108E-09
   6.24000  9.235255E-09
   6.26000  9.115868E-09
   6.28000  9.001379E-09
   6.30000  8.888824E-09
   6.32000  8.778043E-09
   6.34000  8.668885E-09
   6.36000  8.557694E-09
   6.38000  8.454092E-09
   6.40000  8.345560E-09
   6.42000  8.243524E-09
   6.44000  8.139819E-09
   6.46000  8.046246E-09
   6.48000  7.944122E-09
   6.50000  7.851724E-09
   6.52000  7.750756E-09
   6.54000  7.659135E-09
   6.56000  7.564614E-09
   6.58000  7.473356E-09
   6.60000  7.382138E-09
   6.62000  7.296403E-09
   6.64000  7.207947E-09
   6.66000  7.124665E-09
   6.68000  7.035601E-09
   6.70000  6.954345E-09
   6.72000  6.872497E-09
   6.74000  6.792796E-09
   6.76000  6.712339E-09
   6.78000  6.633806E-09
   6.80000  6.554371E-09
   6.82000  6.481704E-09
   6.84000  6.405534E-09
   6.86000  6.330836E-09
   6.88000  6.259842E-09
   6.90000  6.185186E-09
   6.92000  6.116373E-09
   6.94000  6.043967E-09
   6.96000  5.977300E-09
   6.98000  5.906728E-09
   7.00000  5.844022E-09
   7.02000  5.774888E-09
   7.04000  5.710970E-09
   7.06000  5.649835E-09
   7.08000  5.584519E-09
   7.10000  5.524020E-09
   7.12000  5.459274E-09
   7.14000  5.401349E-09
   7.16000  5.339071E-09
   7.18000  5.283320E-09
   7.20000  5.225266E-09
   7.22000  5.164913E-09
   7.24000  5.108570E-09
   7.26000  5.051904E-09
   7.28000  4.994869E-09
   7.30000  4.941477E-09
   7.32000  4.887546E-09
   7.34000  4.833039E-09
   7.36000  4.781845E-09
   7.38000  4.733806E-09
   7.40000  4.684926E-09
   7.42000  4.635178E-09
   7.44000  4.584538E-09
   7.46000  4.536704E-09
   7.48000  4.483870E-09
   7.50000  4.441294E-09
   7.52000  4.389969E-09
   7.54000  4.348597E-09
   7.56000  4.302025E-09
   7.58000  4.254183E-09
   7.60000  4.208519E-09
   7.62000  4.164917E-09
   7.64000  4.123267E-09
   7.66000  4.080113E-09
   7.68000  4.038768E-09
   7.70000  3.999130E-09
   7.72000  3.954126E-09
   7.74000  3.917666E-09
   7.76000  3.875758E-09
   7.78000  3.838958E-09
   7.80000  3.799819E-09
   7.82000  3.761947E-09
   7.84000  3.722206E-09
   7.86000  3.686656E-09
   7.88000  3.649143E-09
   7.90000  3.609095E-09
   7.92000  3.576495E-09
   7.94000  3.541807E-09
   7.96000  3.504432E-09
   7.98000  3.470684E-09
   8.00000  3.434779E-09
   8.02000  3.398885E-09
   8.04000  3.370409E-09
   8.06000  3.338319E-09
   8.08000  3.298518E-09
   8.10000  3.267290E-09
   8.12000  3.237067E-09
   8.14000  3.203106E-09
   8.16000  3.176021E-09
   8.18000  3.145076E-09
   8.20000  3.114972E-09
   8.22000  3.084965E-09
   8.24000  3.053549E-09
   8.26000  3.026087E-09
   8.28000  2.997068E-09
   8.30000  2.966245E-09
   8.32000  2.939390E-09
   8.34000  2.913069E-09
   8.36000  2.882592E-09
   8.38000  2.858103E-09
   8.40000  2.829383E-09
   8.42000  2.803402E-09
   8.44000  2.778503E-09
   8.46000  2.748613E-09
   8.48000  2.727252E-09
   8.50000  2.700861E-09
   8.52000  2.675318E-09
   8.54000  2.652165E-09
   8.56000  2.624569E-09
   8.58000  2.602253E-09
   8.60000  2.579681E-09
   8.62000  2.555066E-09
   8.64000  2.530111E-09
   8.66000  2.508088E-09
   8.68000  2.485579E-09
   8.70000  2.463023E-09
   8.72000  2.441575E-09
   8.74000  2.417483E-09
   8.76000  2.393298E-09
   8.78000  2.371199E-09
   8.80000  2.350867E-09
   8.82000  2.332438E-09
   8.84000  2.310984E-09
   8.86000  2.289443E-09
   8.88000  2.271368E-09
   8.90000  2.248505E-09
   8.92000  2.227188E-09
   8.94000  2.207430E-09
   8.96000  2.190898E-09
   8.98000  2.169514E-09
   9.00000  2.153928E-09
   9.02000  2.130827E-09
   9.04000  2.115155E-09
   9.06000  2.094584E-09
   9.08000  2.076954E-09
   9.10000  2.060401E-09
   9.12000  2.040715E-09
   9.14000  2.022037E-09
   9.16000  2.006086E-09
   9.18000  1.990996E-09
   9.20000  1.972738E-09
   9.22000  1.956183E-09
   9.24000  1.936274E-09
   9.26000  1.922948E-09
   9.28000  1.906189E-09
   9.30000  1.887824E-09
   9.32000  1.874016E-09
   9.34000  1.858532E-09
   9.36000  1.841085E-09
   9.38000  1.826788E-09
   9.40000  1.811948E-09
   9.42000  1.793910E-09
   9.44000  1.781497E-09
   9.46000  1.767303E-09
   9.48000  1.749526E-09
   9.50000  1.737534E-09
   9.52000  1.723322E-09
   9.54000  1.707300E-09
   9.56000  1.692747E-09
   9.58000  1.678655E-09
   9.60000  1.667287E-09
   9.62000  1.652668E-09
   9.64000  1.639323E-09
   9.66000  1.624090E-09
   9.68000  1.611374E-09
   9.70000  1.598960E-09
   9.72000  1.585409E-09
   9.74000  1.572129E-09
   9.76000  1.560764E-09
   9.78000  1.548158E-09
   9.80000  1.535751E-09
   9.82000  1.523309E-09
   9.84000  1.511022E-09
   9.86000  1.499529E-09
   9.88000  1.487241E-09
   9.90000  1.473554E-09
   9.92000  1.463271E-09
   9.94000  1.451516E-09
   9.96000  1.438898E-09
   9.98000  1.426856E-09
   10.0000  1.415987E-09
