Ni Rho=8.902, Sig=0.nm, P=1., E=5000.eV
 Angle (deg), Reflectivity
   0.000000  1.00000
   2.000000E-02  0.997329
   4.000000E-02  0.994658
   6.000000E-02  0.991980
   8.000000E-02  0.989288
   0.100000  0.986574
   0.120000  0.983830
   0.140000  0.981049
   0.160000  0.978220
   0.180000  0.975336
   0.200000  0.972386
   0.220000  0.969357
   0.240000  0.966237
   0.260000  0.963011
   0.280000  0.959663
   0.300000  0.956173
   0.320000  0.952519
   0.340000  0.948673
   0.360000  0.944602
   0.380000  0.940268
   0.400000  0.935622
   0.420000  0.930603
   0.440000  0.925132
   0.460000  0.919109
   0.480000  0.912398
   0.500000  0.904811
   0.520000  0.896085
   0.540000  0.885828
   0.560000  0.873427
   0.580000  0.857864
   0.600000  0.837270
   0.620000  0.807761
   0.640000  0.759505
   0.660000  0.660206
   0.680000  0.457896
   0.700000  0.301886
   0.720000  0.216941
   0.740000  0.165026
   0.760000  0.130247
   0.780000  0.105501
   0.800000  8.713792E-02
   0.820000  7.308054E-02
   0.840000  6.205740E-02
   0.860000  5.324544E-02
   0.880000  4.608867E-02
   0.900000  4.019841E-02
   0.920000  3.529513E-02
   0.940000  3.117309E-02
   0.960000  2.767781E-02
   0.980000  2.469123E-02
   1.00000  2.212184E-02
   1.02000  1.989773E-02
   1.04000  1.796173E-02
   1.06000  1.626798E-02
   1.08000  1.477923E-02
   1.10000  1.346503E-02
   1.12000  1.230036E-02
   1.14000  1.126439E-02
   1.16000  1.033973E-02
   1.18000  9.511793E-03
   1.20000  8.768243E-03
   1.22000  8.098586E-03
   1.24000  7.493898E-03
   1.26000  6.946512E-03
   1.28000  6.449816E-03
   1.30000  5.998115E-03
   1.32000  5.586472E-03
   1.34000  5.210556E-03
   1.36000  4.866623E-03
   1.38000  4.551375E-03
   1.40000  4.261914E-03
   1.42000  3.995682E-03
   1.44000  3.750429E-03
   1.46000  3.524153E-03
   1.48000  3.315086E-03
   1.50000  3.121638E-03
   1.52000  2.942402E-03
   1.54000  2.776117E-03
   1.56000  2.621655E-03
   1.58000  2.478002E-03
   1.60000  2.344246E-03
   1.62000  2.219561E-03
   1.64000  2.103213E-03
   1.66000  1.994522E-03
   1.68000  1.892887E-03
   1.70000  1.797750E-03
   1.72000  1.708618E-03
   1.74000  1.625030E-03
   1.76000  1.546572E-03
   1.78000  1.472863E-03
   1.80000  1.403559E-03
   1.82000  1.338345E-03
   1.84000  1.276930E-03
   1.86000  1.219044E-03
   1.88000  1.164451E-03
   1.90000  1.112919E-03
   1.92000  1.064241E-03
   1.94000  1.018230E-03
   1.96000  9.747123E-04
   1.98000  9.335214E-04
   2.00000  8.945120E-04
   2.02000  8.575395E-04
   2.04000  8.224815E-04
   2.06000  7.892192E-04
   2.08000  7.576363E-04
   2.10000  7.276362E-04
   2.12000  6.991250E-04
   2.14000  6.720075E-04
   2.16000  6.462080E-04
   2.18000  6.216450E-04
   2.20000  5.982525E-04
   2.22000  5.759570E-04
   2.24000  5.547032E-04
   2.26000  5.344294E-04
   2.28000  5.150814E-04
   2.30000  4.966102E-04
   2.32000  4.789674E-04
   2.34000  4.621070E-04
   2.36000  4.459875E-04
   2.38000  4.305725E-04
   2.40000  4.158223E-04
   2.42000  4.017042E-04
   2.44000  3.881843E-04
   2.46000  3.752330E-04
   2.48000  3.628210E-04
   2.50000  3.509229E-04
   2.52000  3.395126E-04
   2.54000  3.285655E-04
   2.56000  3.180591E-04
   2.58000  3.079720E-04
   2.60000  2.982845E-04
   2.62000  2.889798E-04
   2.64000  2.800362E-04
   2.66000  2.714369E-04
   2.68000  2.631691E-04
   2.70000  2.552149E-04
   2.72000  2.475611E-04
   2.74000  2.401943E-04
   2.76000  2.331010E-04
   2.78000  2.262694E-04
   2.80000  2.196872E-04
   2.82000  2.133451E-04
   2.84000  2.072321E-04
   2.86000  2.013360E-04
   2.88000  1.956503E-04
   2.90000  1.901653E-04
   2.92000  1.848718E-04
   2.94000  1.797625E-04
   2.96000  1.748299E-04
   2.98000  1.700657E-04
   3.00000  1.654639E-04
   3.02000  1.610173E-04
   3.04000  1.567204E-04
   3.06000  1.525655E-04
   3.08000  1.485491E-04
   3.10000  1.446650E-04
   3.12000  1.409066E-04
   3.14000  1.372709E-04
   3.16000  1.337523E-04
   3.18000  1.303458E-04
   3.20000  1.270483E-04
   3.22000  1.238541E-04
   3.24000  1.207608E-04
   3.26000  1.177639E-04
   3.28000  1.148596E-04
   3.30000  1.120447E-04
   3.32000  1.093160E-04
   3.34000  1.066703E-04
   3.36000  1.041045E-04
   3.38000  1.016161E-04
   3.40000  9.920102E-05
   3.42000  9.685828E-05
   3.44000  9.458466E-05
   3.46000  9.237703E-05
   3.48000  9.023434E-05
   3.50000  8.815366E-05
   3.52000  8.613284E-05
   3.54000  8.416978E-05
   3.56000  8.226194E-05
   3.58000  8.040878E-05
   3.60000  7.860790E-05
   3.62000  7.685724E-05
   3.64000  7.515436E-05
   3.66000  7.349964E-05
   3.68000  7.188998E-05
   3.70000  7.032488E-05
   3.72000  6.880188E-05
   3.74000  6.731962E-05
   3.76000  6.587767E-05
   3.78000  6.447425E-05
   3.80000  6.310770E-05
   3.82000  6.177813E-05
   3.84000  6.048304E-05
   3.86000  5.922217E-05
   3.88000  5.799365E-05
   3.90000  5.679762E-05
   3.92000  5.563108E-05
   3.94000  5.449551E-05
   3.96000  5.338911E-05
   3.98000  5.230985E-05
   4.00000  5.125879E-05
   4.02000  5.023354E-05
   4.04000  4.923405E-05
   4.06000  4.825849E-05
   4.08000  4.730823E-05
   4.10000  4.638115E-05
   4.12000  4.547648E-05
   4.14000  4.459393E-05
   4.16000  4.373255E-05
   4.18000  4.289231E-05
   4.20000  4.207192E-05
   4.22000  4.127152E-05
   4.24000  4.048981E-05
   4.26000  3.972662E-05
   4.28000  3.898104E-05
   4.30000  3.825355E-05
   4.32000  3.754266E-05
   4.34000  3.684824E-05
   4.36000  3.616993E-05
   4.38000  3.550757E-05
   4.40000  3.485999E-05
   4.42000  3.422710E-05
   4.44000  3.360872E-05
   4.46000  3.300446E-05
   4.48000  3.241337E-05
   4.50000  3.183585E-05
   4.52000  3.127109E-05
   4.54000  3.071844E-05
   4.56000  3.017829E-05
   4.58000  2.965009E-05
   4.60000  2.913322E-05
   4.62000  2.862798E-05
   4.64000  2.813364E-05
   4.66000  2.764935E-05
   4.68000  2.717589E-05
   4.70000  2.671259E-05
   4.72000  2.625919E-05
   4.74000  2.581531E-05
   4.76000  2.538083E-05
   4.78000  2.495566E-05
   4.80000  2.453912E-05
   4.82000  2.413098E-05
   4.84000  2.373190E-05
   4.86000  2.334094E-05
   4.88000  2.295795E-05
   4.90000  2.258273E-05
   4.92000  2.221528E-05
   4.94000  2.185500E-05
   4.96000  2.150226E-05
   4.98000  2.115673E-05
   5.00000  2.081797E-05
   5.02000  2.048620E-05
   5.04000  2.016073E-05
   5.06000  1.984191E-05
   5.08000  1.952944E-05
   5.10000  1.922294E-05
   5.12000  1.892239E-05
   5.14000  1.862799E-05
   5.16000  1.833909E-05
   5.18000  1.805597E-05
   5.20000  1.777831E-05
   5.22000  1.750567E-05
   5.24000  1.723873E-05
   5.26000  1.697654E-05
   5.28000  1.671933E-05
   5.30000  1.646711E-05
   5.32000  1.621962E-05
   5.34000  1.597667E-05
   5.36000  1.573845E-05
   5.38000  1.550444E-05
   5.40000  1.527506E-05
   5.42000  1.504978E-05
   5.44000  1.482852E-05
   5.46000  1.461148E-05
   5.48000  1.439856E-05
   5.50000  1.418908E-05
   5.52000  1.398382E-05
   5.54000  1.378213E-05
   5.56000  1.358409E-05
   5.58000  1.338945E-05
   5.60000  1.319841E-05
   5.62000  1.301088E-05
   5.64000  1.282641E-05
   5.66000  1.264558E-05
   5.68000  1.246766E-05
   5.70000  1.229296E-05
   5.72000  1.212113E-05
   5.74000  1.195254E-05
   5.76000  1.178686E-05
   5.78000  1.162411E-05
   5.80000  1.146390E-05
   5.82000  1.130665E-05
   5.84000  1.115215E-05
   5.86000  1.100025E-05
   5.88000  1.085088E-05
   5.90000  1.070394E-05
   5.92000  1.055958E-05
   5.94000  1.041774E-05
   5.96000  1.027830E-05
   5.98000  1.014091E-05
   6.00000  1.000610E-05
   6.02000  9.873546E-06
   6.04000  9.743029E-06
   6.06000  9.614677E-06
   6.08000  9.488487E-06
   6.10000  9.364284E-06
   6.12000  9.242363E-06
   6.14000  9.122215E-06
   6.16000  9.004051E-06
   6.18000  8.887707E-06
   6.20000  8.773466E-06
   6.22000  8.660964E-06
   6.24000  8.550282E-06
   6.26000  8.441264E-06
   6.28000  8.334074E-06
   6.30000  8.228590E-06
   6.32000  8.124776E-06
   6.34000  8.022598E-06
   6.36000  7.921913E-06
   6.38000  7.822984E-06
   6.40000  7.725404E-06
   6.42000  7.629488E-06
   6.44000  7.534964E-06
   6.46000  7.442165E-06
   6.48000  7.350493E-06
   6.50000  7.260481E-06
   6.52000  7.171545E-06
   6.54000  7.084208E-06
   6.56000  6.998070E-06
   6.58000  6.913298E-06
   6.60000  6.829770E-06
   6.62000  6.747629E-06
   6.64000  6.666603E-06
   6.66000  6.586910E-06
   6.68000  6.508197E-06
   6.70000  6.430855E-06
   6.72000  6.354610E-06
   6.74000  6.279524E-06
   6.76000  6.205490E-06
   6.78000  6.132570E-06
   6.80000  6.060659E-06
   6.82000  5.989973E-06
   6.84000  5.920182E-06
   6.86000  5.851419E-06
   6.88000  5.783734E-06
   6.90000  5.716887E-06
   6.92000  5.651149E-06
   6.94000  5.586221E-06
   6.96000  5.522367E-06
   6.98000  5.459281E-06
   7.00000  5.397304E-06
   7.02000  5.335986E-06
   7.04000  5.275667E-06
   7.06000  5.216260E-06
   7.08000  5.157538E-06
   7.10000  5.099760E-06
   7.12000  5.042638E-06
   7.14000  4.986497E-06
   7.16000  4.930981E-06
   7.18000  4.876410E-06
   7.20000  4.822503E-06
   7.22000  4.769248E-06
   7.24000  4.716825E-06
   7.26000  4.665088E-06
   7.28000  4.614028E-06
   7.30000  4.563753E-06
   7.32000  4.514126E-06
   7.34000  4.465133E-06
   7.36000  4.416885E-06
   7.38000  4.369364E-06
   7.40000  4.322440E-06
   7.42000  4.276100E-06
   7.44000  4.230335E-06
   7.46000  4.185248E-06
   7.48000  4.140591E-06
   7.50000  4.096820E-06
   7.52000  4.053347E-06
   7.54000  4.010731E-06
   7.56000  3.968504E-06
   7.58000  3.926776E-06
   7.60000  3.885643E-06
   7.62000  3.845094E-06
   7.64000  3.805117E-06
   7.66000  3.765599E-06
   7.68000  3.726632E-06
   7.70000  3.688206E-06
   7.72000  3.650099E-06
   7.74000  3.612725E-06
   7.76000  3.575652E-06
   7.78000  3.539194E-06
   7.80000  3.503117E-06
   7.82000  3.467524E-06
   7.84000  3.432312E-06
   7.86000  3.397660E-06
   7.88000  3.363373E-06
   7.90000  3.329429E-06
   7.92000  3.296123E-06
   7.94000  3.263159E-06
   7.96000  3.230515E-06
   7.98000  3.198375E-06
   8.00000  3.166557E-06
   8.02000  3.135123E-06
   8.04000  3.104289E-06
   8.06000  3.073718E-06
   8.08000  3.043277E-06
   8.10000  3.013458E-06
   8.12000  2.984023E-06
   8.14000  2.954825E-06
   8.16000  2.926179E-06
   8.18000  2.897757E-06
   8.20000  2.869693E-06
   8.22000  2.841962E-06
   8.24000  2.814515E-06
   8.26000  2.787505E-06
   8.28000  2.760766E-06
   8.30000  2.734281E-06
   8.32000  2.708224E-06
   8.34000  2.682485E-06
   8.36000  2.656918E-06
   8.38000  2.631824E-06
   8.40000  2.606893E-06
   8.42000  2.582329E-06
   8.44000  2.558079E-06
   8.46000  2.533955E-06
   8.48000  2.510363E-06
   8.50000  2.486887E-06
   8.52000  2.463702E-06
   8.54000  2.440852E-06
   8.56000  2.418125E-06
   8.58000  2.395812E-06
   8.60000  2.373743E-06
   8.62000  2.351859E-06
   8.64000  2.330210E-06
   8.66000  2.308888E-06
   8.68000  2.287791E-06
   8.70000  2.266925E-06
   8.72000  2.246323E-06
   8.74000  2.225870E-06
   8.76000  2.205638E-06
   8.78000  2.185691E-06
   8.80000  2.166015E-06
   8.82000  2.146613E-06
   8.84000  2.127332E-06
   8.86000  2.108258E-06
   8.88000  2.089495E-06
   8.90000  2.070792E-06
   8.92000  2.052337E-06
   8.94000  2.034128E-06
   8.96000  2.016212E-06
   8.98000  1.998343E-06
   9.00000  1.980839E-06
   9.02000  1.963297E-06
   9.04000  1.946165E-06
   9.06000  1.929069E-06
   9.08000  1.912242E-06
   9.10000  1.895626E-06
   9.12000  1.879092E-06
   9.14000  1.862762E-06
   9.16000  1.846685E-06
   9.18000  1.830805E-06
   9.20000  1.814995E-06
   9.22000  1.799402E-06
   9.24000  1.783870E-06
   9.26000  1.768698E-06
   9.28000  1.753581E-06
   9.30000  1.738572E-06
   9.32000  1.723855E-06
   9.34000  1.709240E-06
   9.36000  1.694717E-06
   9.38000  1.680437E-06
   9.40000  1.666288E-06
   9.42000  1.652186E-06
   9.44000  1.638399E-06
   9.46000  1.624698E-06
   9.48000  1.611028E-06
   9.50000  1.597672E-06
   9.52000  1.584384E-06
   9.54000  1.571175E-06
   9.56000  1.558144E-06
   9.58000  1.545258E-06
   9.60000  1.532583E-06
   9.62000  1.519938E-06
   9.64000  1.507457E-06
   9.66000  1.495044E-06
   9.68000  1.482830E-06
   9.70000  1.470746E-06
   9.72000  1.458748E-06
   9.74000  1.446877E-06
   9.76000  1.435180E-06
   9.78000  1.423562E-06
   9.80000  1.412064E-06
   9.82000  1.400678E-06
   9.84000  1.389408E-06
   9.86000  1.378272E-06
   9.88000  1.367221E-06
   9.90000  1.356235E-06
   9.92000  1.345458E-06
   9.94000  1.334741E-06
   9.96000  1.324102E-06
   9.98000  1.313582E-06
   10.0000  1.303199E-06
