Ni Rho=8.902, Sig=0.nm, P=1., E=23000.eV
 Angle (deg), Reflectivity
   0.000000  1.00000
   2.000000E-02  0.993506
   4.000000E-02  0.986685
   6.000000E-02  0.979059
   8.000000E-02  0.969840
   0.100000  0.957351
   0.120000  0.936615
   0.140000  0.875669
   0.160000  0.212704
   0.180000  7.820084E-02
   0.200000  3.953427E-02
   0.220000  2.299893E-02
   0.240000  1.456150E-02
   0.260000  9.773068E-03
   0.280000  6.849678E-03
   0.300000  4.965798E-03
   0.320000  3.699652E-03
   0.340000  2.819361E-03
   0.360000  2.189966E-03
   0.380000  1.729196E-03
   0.400000  1.384974E-03
   0.420000  1.123256E-03
   0.440000  9.211761E-04
   0.460000  7.629894E-04
   0.480000  6.376387E-04
   0.500000  5.372110E-04
   0.520000  4.559477E-04
   0.540000  3.895892E-04
   0.560000  3.349527E-04
   0.580000  2.896251E-04
   0.600000  2.517542E-04
   0.620000  2.199088E-04
   0.640000  1.929682E-04
   0.660000  1.700493E-04
   0.680000  1.504487E-04
   0.700000  1.336048E-04
   0.720000  1.190622E-04
   0.740000  1.064533E-04
   0.760000  9.547568E-05
   0.780000  8.588315E-05
   0.800000  7.746921E-05
   0.820000  7.006336E-05
   0.840000  6.352468E-05
   0.860000  5.773349E-05
   0.880000  5.258961E-05
   0.900000  4.800733E-05
   0.920000  4.391416E-05
   0.940000  4.024947E-05
   0.960000  3.696038E-05
   0.980000  3.400086E-05
   1.00000  3.133255E-05
   1.02000  2.892155E-05
   1.04000  2.673784E-05
   1.06000  2.475750E-05
   1.08000  2.295750E-05
   1.10000  2.131807E-05
   1.12000  1.982288E-05
   1.14000  1.845681E-05
   1.16000  1.720630E-05
   1.18000  1.606025E-05
   1.20000  1.500833E-05
   1.22000  1.404102E-05
   1.24000  1.315063E-05
   1.26000  1.232998E-05
   1.28000  1.157220E-05
   1.30000  1.087177E-05
   1.32000  1.022404E-05
   1.34000  9.623408E-06
   1.36000  9.066496E-06
   1.38000  8.549381E-06
   1.40000  8.068676E-06
   1.42000  7.621195E-06
   1.44000  7.204398E-06
   1.46000  6.815712E-06
   1.48000  6.453130E-06
   1.50000  6.114258E-06
   1.52000  5.797305E-06
   1.54000  5.500578E-06
   1.56000  5.222626E-06
   1.58000  4.962091E-06
   1.60000  4.717610E-06
   1.62000  4.487985E-06
   1.64000  4.272299E-06
   1.66000  4.069269E-06
   1.68000  3.878318E-06
   1.70000  3.698283E-06
   1.72000  3.528705E-06
   1.74000  3.368743E-06
   1.76000  3.217750E-06
   1.78000  3.075013E-06
   1.80000  2.940137E-06
   1.82000  2.812652E-06
   1.84000  2.692025E-06
   1.86000  2.577722E-06
   1.88000  2.469600E-06
   1.90000  2.367011E-06
   1.92000  2.269603E-06
   1.94000  2.177142E-06
   1.96000  2.089482E-06
   1.98000  2.006090E-06
   2.00000  1.926941E-06
   2.02000  1.851476E-06
   2.04000  1.779772E-06
   2.06000  1.711592E-06
   2.08000  1.646480E-06
   2.10000  1.584501E-06
   2.12000  1.525546E-06
   2.14000  1.469127E-06
   2.16000  1.415408E-06
   2.18000  1.364028E-06
   2.20000  1.315090E-06
   2.22000  1.268149E-06
   2.24000  1.223417E-06
   2.26000  1.180606E-06
   2.28000  1.139634E-06
   2.30000  1.100480E-06
   2.32000  1.063009E-06
   2.34000  1.027075E-06
   2.36000  9.925998E-07
   2.38000  9.596500E-07
   2.40000  9.280067E-07
   2.42000  8.976876E-07
   2.44000  8.685646E-07
   2.46000  8.406164E-07
   2.48000  8.137546E-07
   2.50000  7.880010E-07
   2.52000  7.632733E-07
   2.54000  7.394999E-07
   2.56000  7.166297E-07
   2.58000  6.946235E-07
   2.60000  6.734600E-07
   2.62000  6.531897E-07
   2.64000  6.336146E-07
   2.66000  6.147037E-07
   2.68000  5.965717E-07
   2.70000  5.790593E-07
   2.72000  5.621978E-07
   2.74000  5.459560E-07
   2.76000  5.302872E-07
   2.78000  5.151822E-07
   2.80000  5.005800E-07
   2.82000  4.865448E-07
   2.84000  4.730169E-07
   2.86000  4.598722E-07
   2.88000  4.472252E-07
   2.90000  4.350226E-07
   2.92000  4.232082E-07
   2.94000  4.118008E-07
   2.96000  4.008007E-07
   2.98000  3.901373E-07
   3.00000  3.798395E-07
   3.02000  3.698652E-07
   3.04000  3.602428E-07
   3.06000  3.508741E-07
   3.08000  3.418537E-07
   3.10000  3.331429E-07
   3.12000  3.246501E-07
   3.14000  3.164656E-07
   3.16000  3.085380E-07
   3.18000  3.008355E-07
   3.20000  2.934056E-07
   3.22000  2.861613E-07
   3.24000  2.791731E-07
   3.26000  2.723917E-07
   3.28000  2.658084E-07
   3.30000  2.594153E-07
   3.32000  2.532219E-07
   3.34000  2.472175E-07
   3.36000  2.413822E-07
   3.38000  2.357373E-07
   3.40000  2.302149E-07
   3.42000  2.248852E-07
   3.44000  2.197110E-07
   3.46000  2.146560E-07
   3.48000  2.097743E-07
   3.50000  2.050296E-07
   3.52000  2.004165E-07
   3.54000  1.959297E-07
   3.56000  1.915379E-07
   3.58000  1.873022E-07
   3.60000  1.831906E-07
   3.62000  1.791854E-07
   3.64000  1.752456E-07
   3.66000  1.714656E-07
   3.68000  1.677677E-07
   3.70000  1.641945E-07
   3.72000  1.606962E-07
   3.74000  1.572683E-07
   3.76000  1.539546E-07
   3.78000  1.507254E-07
   3.80000  1.475588E-07
   3.82000  1.445154E-07
   3.84000  1.415259E-07
   3.86000  1.386293E-07
   3.88000  1.357841E-07
   3.90000  1.330441E-07
   3.92000  1.303109E-07
   3.94000  1.276980E-07
   3.96000  1.251619E-07
   3.98000  1.226450E-07
   4.00000  1.202375E-07
   4.02000  1.178619E-07
   4.04000  1.155528E-07
   4.06000  1.132566E-07
   4.08000  1.110735E-07
   4.10000  1.089342E-07
   4.12000  1.068327E-07
   4.14000  1.047863E-07
   4.16000  1.027787E-07
   4.18000  1.008363E-07
   4.20000  9.892449E-08
   4.22000  9.707810E-08
   4.24000  9.525887E-08
   4.26000  9.348337E-08
   4.28000  9.173235E-08
   4.30000  9.005196E-08
   4.32000  8.839282E-08
   4.34000  8.677105E-08
   4.36000  8.519028E-08
   4.38000  8.366223E-08
   4.40000  8.215020E-08
   4.42000  8.066982E-08
   4.44000  7.923088E-08
   4.46000  7.783169E-08
   4.48000  7.644428E-08
   4.50000  7.510452E-08
   4.52000  7.379001E-08
   4.54000  7.248451E-08
   4.56000  7.122250E-08
   4.58000  6.999247E-08
   4.60000  6.877828E-08
   4.62000  6.760860E-08
   4.64000  6.646189E-08
   4.66000  6.530992E-08
   4.68000  6.420273E-08
   4.70000  6.312096E-08
   4.72000  6.206361E-08
   4.74000  6.102434E-08
   4.76000  6.000766E-08
   4.78000  5.902086E-08
   4.80000  5.804127E-08
   4.82000  5.706851E-08
   4.84000  5.614405E-08
   4.86000  5.523233E-08
   4.88000  5.433597E-08
   4.90000  5.345327E-08
   4.92000  5.259404E-08
   4.94000  5.173768E-08
   4.96000  5.091046E-08
   4.98000  5.010424E-08
   5.00000  4.930603E-08
   5.02000  4.853412E-08
   5.04000  4.776230E-08
   5.06000  4.701529E-08
   5.08000  4.628569E-08
   5.10000  4.556120E-08
   5.12000  4.484772E-08
   5.14000  4.416211E-08
   5.16000  4.347919E-08
   5.18000  4.281735E-08
   5.20000  4.216912E-08
   5.22000  4.151728E-08
   5.24000  4.090099E-08
   5.26000  4.028018E-08
   5.28000  3.967106E-08
   5.30000  3.907886E-08
   5.32000  3.849719E-08
   5.34000  3.792055E-08
   5.36000  3.736403E-08
   5.38000  3.680647E-08
   5.40000  3.627297E-08
   5.42000  3.574263E-08
   5.44000  3.521519E-08
   5.46000  3.470502E-08
   5.48000  3.421139E-08
   5.50000  3.370512E-08
   5.52000  3.322881E-08
   5.54000  3.275345E-08
   5.56000  3.228780E-08
   5.58000  3.182256E-08
   5.60000  3.137109E-08
   5.62000  3.093286E-08
   5.64000  3.048928E-08
   5.66000  3.007131E-08
   5.68000  2.964735E-08
   5.70000  2.923497E-08
   5.72000  2.882102E-08
   5.74000  2.842586E-08
   5.76000  2.803631E-08
   5.78000  2.765669E-08
   5.80000  2.726977E-08
   5.82000  2.689973E-08
   5.84000  2.653855E-08
   5.86000  2.618130E-08
   5.88000  2.582773E-08
   5.90000  2.547504E-08
   5.92000  2.513260E-08
   5.94000  2.479988E-08
   5.96000  2.447408E-08
   5.98000  2.413938E-08
   6.00000  2.382449E-08
   6.02000  2.351564E-08
   6.04000  2.320383E-08
   6.06000  2.289768E-08
   6.08000  2.259887E-08
   6.10000  2.230083E-08
   6.12000  2.201989E-08
   6.14000  2.173310E-08
   6.16000  2.145243E-08
   6.18000  2.117168E-08
   6.20000  2.090651E-08
   6.22000  2.064072E-08
   6.24000  2.037987E-08
   6.26000  2.011810E-08
   6.28000  1.986494E-08
   6.30000  1.961596E-08
   6.32000  1.937091E-08
   6.34000  1.912953E-08
   6.36000  1.888637E-08
   6.38000  1.865570E-08
   6.40000  1.841889E-08
   6.42000  1.819291E-08
   6.44000  1.796560E-08
   6.46000  1.775446E-08
   6.48000  1.753173E-08
   6.50000  1.732453E-08
   6.52000  1.710567E-08
   6.54000  1.690174E-08
   6.56000  1.669453E-08
   6.58000  1.649318E-08
   6.60000  1.629288E-08
   6.62000  1.610170E-08
   6.64000  1.590743E-08
   6.66000  1.572178E-08
   6.68000  1.552847E-08
   6.70000  1.534766E-08
   6.72000  1.516686E-08
   6.74000  1.499012E-08
   6.76000  1.481312E-08
   6.78000  1.463982E-08
   6.80000  1.446601E-08
   6.82000  1.430307E-08
   6.84000  1.413572E-08
   6.86000  1.397134E-08
   6.88000  1.381324E-08
   6.90000  1.365046E-08
   6.92000  1.349710E-08
   6.94000  1.333914E-08
   6.96000  1.319042E-08
   6.98000  1.303661E-08
   7.00000  1.289517E-08
   7.02000  1.274488E-08
   7.04000  1.260300E-08
   7.06000  1.246592E-08
   7.08000  1.232328E-08
   7.10000  1.218844E-08
   7.12000  1.204791E-08
   7.14000  1.191813E-08
   7.16000  1.178249E-08
   7.18000  1.165715E-08
   7.20000  1.152897E-08
   7.22000  1.139796E-08
   7.24000  1.127347E-08
   7.26000  1.114906E-08
   7.28000  1.102464E-08
   7.30000  1.090619E-08
   7.32000  1.078746E-08
   7.34000  1.066840E-08
   7.36000  1.055477E-08
   7.38000  1.044634E-08
   7.40000  1.033716E-08
   7.42000  1.022718E-08
   7.44000  1.011635E-08
   7.46000  1.001017E-08
   7.48000  9.897030E-09
   7.50000  9.799584E-09
   7.52000  9.689595E-09
   7.54000  9.594836E-09
   7.56000  9.492790E-09
   7.58000  9.389288E-09
   7.60000  9.289447E-09
   7.62000  9.193085E-09
   7.64000  9.100035E-09
   7.66000  9.005154E-09
   7.68000  8.913360E-09
   7.70000  8.824494E-09
   7.72000  8.728042E-09
   7.74000  8.644663E-09
   7.76000  8.553565E-09
   7.78000  8.470423E-09
   7.80000  8.384170E-09
   7.82000  8.300156E-09
   7.84000  8.213718E-09
   7.86000  8.133852E-09
   7.88000  8.051411E-09
   7.90000  7.965542E-09
   7.92000  7.891066E-09
   7.94000  7.813814E-09
   7.96000  7.732894E-09
   7.98000  7.657678E-09
   8.00000  7.579569E-09
   8.02000  7.501784E-09
   8.04000  7.435318E-09
   8.06000  7.363784E-09
   8.08000  7.281090E-09
   8.10000  7.211419E-09
   8.12000  7.143525E-09
   8.14000  7.070360E-09
   8.16000  7.007685E-09
   8.18000  6.939550E-09
   8.20000  6.872933E-09
   8.22000  6.806724E-09
   8.24000  6.738683E-09
   8.26000  6.676773E-09
   8.28000  6.612805E-09
   8.30000  6.546405E-09
   8.32000  6.486146E-09
   8.34000  6.426923E-09
   8.36000  6.361767E-09
   8.38000  6.305740E-09
   8.40000  6.243661E-09
   8.42000  6.185880E-09
   8.44000  6.129934E-09
   8.46000  6.066795E-09
   8.48000  6.016545E-09
   8.50000  5.959039E-09
   8.52000  5.903008E-09
   8.54000  5.850737E-09
   8.56000  5.792074E-09
   8.58000  5.741458E-09
   8.60000  5.690664E-09
   8.62000  5.637035E-09
   8.64000  5.583097E-09
   8.66000  5.533707E-09
   8.68000  5.483787E-09
   8.70000  5.433984E-09
   8.72000  5.386013E-09
   8.74000  5.334299E-09
   8.76000  5.282627E-09
   8.78000  5.234233E-09
   8.80000  5.188638E-09
   8.82000  5.146044E-09
   8.84000  5.099127E-09
   8.86000  5.052249E-09
   8.88000  5.010687E-09
   8.90000  4.962178E-09
   8.92000  4.916126E-09
   8.94000  4.872550E-09
   8.96000  4.833924E-09
   8.98000  4.788246E-09
   9.00000  4.751334E-09
   9.02000  4.703411E-09
   9.04000  4.666673E-09
   9.06000  4.622806E-09
   9.08000  4.583452E-09
   9.10000  4.545842E-09
   9.12000  4.503721E-09
   9.14000  4.463236E-09
   9.16000  4.426942E-09
   9.18000  4.392060E-09
   9.20000  4.352609E-09
   9.22000  4.315820E-09
   9.24000  4.274181E-09
   9.26000  4.242450E-09
   9.28000  4.205747E-09
   9.30000  4.166783E-09
   9.32000  4.134714E-09
   9.34000  4.100279E-09
   9.36000  4.063048E-09
   9.38000  4.030617E-09
   9.40000  3.997498E-09
   9.42000  3.959745E-09
   9.44000  3.930462E-09
   9.46000  3.898648E-09
   9.48000  3.861624E-09
   9.50000  3.833305E-09
   9.52000  3.801798E-09
   9.54000  3.767709E-09
   9.56000  3.735912E-09
   9.58000  3.704902E-09
   9.60000  3.678043E-09
   9.62000  3.646460E-09
   9.64000  3.616870E-09
   9.66000  3.584577E-09
   9.68000  3.556121E-09
   9.70000  3.528211E-09
   9.72000  3.498709E-09
   9.74000  3.469706E-09
   9.76000  3.443642E-09
   9.78000  3.415827E-09
   9.80000  3.388400E-09
   9.82000  3.361012E-09
   9.84000  3.333944E-09
   9.86000  3.308145E-09
   9.88000  3.281253E-09
   9.90000  3.252369E-09
   9.92000  3.228627E-09
   9.94000  3.202783E-09
   9.96000  3.175740E-09
   9.98000  3.149637E-09
   10.0000  3.125357E-09
